PLQY measurement:
Date: 	29.03.2023 10:41:58
Peak emission wavelength (nm): 786
 PLQY = 	 	1.08E-2
absorded light fraction (%): 85
MAYA saturard: FALSE
USB2000 saturaed: FALSE
wavelength	corrected total emission spec
6.8456E+2	9.1506E-3
6.8478E+2	6.0235E-3
6.8500E+2	1.9675E-3
6.8523E+2	5.1399E-3
6.8545E+2	6.7022E-3
6.8567E+2	3.9284E-3
6.8589E+2	6.2810E-3
6.8611E+2	6.0633E-3
6.8634E+2	8.6645E-3
6.8656E+2	1.8485E-3
6.8678E+2	3.8857E-3
6.8700E+2	3.3156E-3
6.8722E+2	5.4384E-3
6.8745E+2	3.6056E-3
6.8767E+2	6.5693E-3
6.8789E+2	5.8781E-3
6.8811E+2	7.9297E-3
6.8833E+2	3.3652E-3
6.8856E+2	6.3924E-3
6.8878E+2	4.4966E-3
6.8900E+2	5.0457E-3
6.8922E+2	9.3967E-3
6.8944E+2	8.7450E-3
6.8966E+2	7.5291E-3
6.8989E+2	7.5338E-3
6.9011E+2	4.1040E-3
6.9033E+2	5.2655E-3
6.9055E+2	5.9937E-3
6.9077E+2	6.2144E-3
6.9099E+2	9.5478E-3
6.9122E+2	3.7110E-3
6.9144E+2	4.3974E-3
6.9166E+2	3.8577E-3
6.9188E+2	6.0455E-3
6.9210E+2	5.5717E-4
6.9232E+2	1.8142E-3
6.9255E+2	5.2216E-3
6.9277E+2	6.2288E-3
6.9299E+2	2.9658E-3
6.9321E+2	4.9351E-3
6.9343E+2	5.8591E-3
6.9365E+2	8.7077E-3
6.9387E+2	6.8113E-3
6.9410E+2	1.3863E-3
6.9432E+2	3.6163E-3
6.9454E+2	4.2746E-3
6.9476E+2	4.3973E-3
6.9498E+2	3.5735E-3
6.9520E+2	5.5658E-3
6.9542E+2	4.8955E-3
6.9565E+2	8.3516E-3
6.9587E+2	8.2856E-3
6.9609E+2	4.0219E-3
6.9631E+2	7.0786E-3
6.9653E+2	6.5266E-3
6.9675E+2	6.6177E-3
6.9697E+2	3.3306E-3
6.9719E+2	5.6659E-3
6.9742E+2	8.2477E-3
6.9764E+2	3.9254E-3
6.9786E+2	5.2417E-3
6.9808E+2	6.2522E-3
6.9830E+2	6.3058E-3
6.9852E+2	1.9884E-3
6.9874E+2	8.1926E-3
6.9896E+2	6.2221E-3
6.9918E+2	7.0847E-3
6.9941E+2	9.8927E-3
6.9963E+2	9.1968E-3
6.9985E+2	3.8127E-3
7.0007E+2	4.0691E-3
7.0029E+2	7.7408E-3
7.0051E+2	5.9680E-3
7.0073E+2	4.2375E-3
7.0095E+2	6.9298E-3
7.0117E+2	6.5116E-3
7.0139E+2	5.8810E-3
7.0161E+2	8.3725E-3
7.0184E+2	7.8260E-3
7.0206E+2	9.7623E-3
7.0228E+2	1.0527E-2
7.0250E+2	9.9940E-3
7.0272E+2	6.7082E-3
7.0294E+2	1.0633E-2
7.0316E+2	7.0030E-3
7.0338E+2	6.8113E-3
7.0360E+2	7.9482E-3
7.0382E+2	8.0803E-3
7.0404E+2	4.6109E-3
7.0426E+2	1.1088E-2
7.0448E+2	6.8659E-3
7.0470E+2	5.2321E-3
7.0492E+2	5.1623E-3
7.0515E+2	8.7737E-3
7.0537E+2	7.7104E-3
7.0559E+2	9.2296E-3
7.0581E+2	8.0013E-3
7.0603E+2	9.9780E-3
7.0625E+2	6.3090E-3
7.0647E+2	9.9312E-3
7.0669E+2	6.9592E-3
7.0691E+2	6.8169E-3
7.0713E+2	7.6970E-3
7.0735E+2	8.0515E-3
7.0757E+2	6.5203E-3
7.0779E+2	1.0906E-2
7.0801E+2	1.1337E-2
7.0823E+2	9.0042E-3
7.0845E+2	9.4241E-3
7.0867E+2	9.4247E-3
7.0889E+2	7.9650E-3
7.0911E+2	8.1151E-3
7.0933E+2	9.8917E-3
7.0955E+2	1.0564E-2
7.0977E+2	1.1298E-2
7.0999E+2	7.8661E-3
7.1021E+2	8.7595E-3
7.1043E+2	8.0589E-3
7.1065E+2	8.0215E-3
7.1087E+2	8.0930E-3
7.1109E+2	7.9648E-3
7.1131E+2	1.0720E-2
7.1153E+2	1.1208E-2
7.1175E+2	1.2879E-2
7.1197E+2	9.9116E-3
7.1219E+2	1.3990E-2
7.1241E+2	1.2134E-2
7.1263E+2	1.3289E-2
7.1285E+2	1.3471E-2
7.1307E+2	1.3933E-2
7.1329E+2	1.1648E-2
7.1351E+2	1.2944E-2
7.1373E+2	1.0383E-2
7.1395E+2	9.5609E-3
7.1417E+2	1.3415E-2
7.1439E+2	1.6700E-2
7.1461E+2	1.5499E-2
7.1483E+2	1.3279E-2
7.1505E+2	1.3132E-2
7.1527E+2	1.5986E-2
7.1549E+2	1.7271E-2
7.1571E+2	1.3430E-2
7.1593E+2	1.3774E-2
7.1615E+2	1.6122E-2
7.1637E+2	1.6214E-2
7.1659E+2	1.2225E-2
7.1681E+2	1.3655E-2
7.1703E+2	1.5357E-2
7.1725E+2	1.5142E-2
7.1747E+2	1.9316E-2
7.1769E+2	1.5538E-2
7.1791E+2	1.9065E-2
7.1813E+2	1.7802E-2
7.1835E+2	1.4560E-2
7.1857E+2	1.9500E-2
7.1879E+2	1.5894E-2
7.1901E+2	1.9915E-2
7.1923E+2	1.9815E-2
7.1944E+2	2.1073E-2
7.1966E+2	1.9615E-2
7.1988E+2	1.9798E-2
7.2010E+2	1.9777E-2
7.2032E+2	1.9807E-2
7.2054E+2	2.0462E-2
7.2076E+2	1.9748E-2
7.2098E+2	1.8725E-2
7.2120E+2	2.0949E-2
7.2142E+2	1.8598E-2
7.2164E+2	2.1635E-2
7.2186E+2	1.9793E-2
7.2208E+2	2.2574E-2
7.2230E+2	1.9579E-2
7.2252E+2	1.8407E-2
7.2273E+2	2.0369E-2
7.2295E+2	2.1668E-2
7.2317E+2	2.4392E-2
7.2339E+2	2.4270E-2
7.2361E+2	2.4691E-2
7.2383E+2	2.6657E-2
7.2405E+2	2.5434E-2
7.2427E+2	2.5652E-2
7.2449E+2	2.4030E-2
7.2471E+2	2.5560E-2
7.2493E+2	2.5713E-2
7.2514E+2	2.8544E-2
7.2536E+2	2.7642E-2
7.2558E+2	2.6539E-2
7.2580E+2	3.0491E-2
7.2602E+2	2.6854E-2
7.2624E+2	2.6414E-2
7.2646E+2	2.6152E-2
7.2668E+2	3.0533E-2
7.2690E+2	2.9867E-2
7.2711E+2	2.4740E-2
7.2733E+2	2.8993E-2
7.2755E+2	3.0181E-2
7.2777E+2	3.2160E-2
7.2799E+2	2.9456E-2
7.2821E+2	3.0321E-2
7.2843E+2	3.5101E-2
7.2865E+2	3.3932E-2
7.2886E+2	3.4350E-2
7.2908E+2	3.5130E-2
7.2930E+2	3.5327E-2
7.2952E+2	3.6789E-2
7.2974E+2	3.4216E-2
7.2996E+2	3.5002E-2
7.3018E+2	3.7000E-2
7.3039E+2	3.9330E-2
7.3061E+2	3.7048E-2
7.3083E+2	3.9112E-2
7.3105E+2	3.9582E-2
7.3127E+2	3.9676E-2
7.3149E+2	3.8739E-2
7.3171E+2	3.9694E-2
7.3192E+2	4.4811E-2
7.3214E+2	4.2228E-2
7.3236E+2	4.3143E-2
7.3258E+2	4.0734E-2
7.3280E+2	4.6061E-2
7.3302E+2	4.0855E-2
7.3323E+2	4.4653E-2
7.3345E+2	4.3654E-2
7.3367E+2	4.4582E-2
7.3389E+2	4.6723E-2
7.3411E+2	4.6593E-2
7.3433E+2	5.2201E-2
7.3454E+2	4.8570E-2
7.3476E+2	4.8196E-2
7.3498E+2	5.0477E-2
7.3520E+2	5.4843E-2
7.3542E+2	5.0262E-2
7.3564E+2	4.8737E-2
7.3585E+2	5.1359E-2
7.3607E+2	5.6149E-2
7.3629E+2	5.3383E-2
7.3651E+2	5.6675E-2
7.3673E+2	5.6279E-2
7.3694E+2	5.4270E-2
7.3716E+2	5.6735E-2
7.3738E+2	5.9318E-2
7.3760E+2	5.8047E-2
7.3782E+2	6.1640E-2
7.3803E+2	6.3762E-2
7.3825E+2	6.1077E-2
7.3847E+2	6.3332E-2
7.3869E+2	6.3972E-2
7.3891E+2	6.1298E-2
7.3912E+2	6.9038E-2
7.3934E+2	6.9303E-2
7.3956E+2	6.8060E-2
7.3978E+2	6.4742E-2
7.4000E+2	6.5727E-2
7.4021E+2	6.8712E-2
7.4043E+2	7.0494E-2
7.4065E+2	7.1489E-2
7.4087E+2	7.0050E-2
7.4108E+2	7.5600E-2
7.4130E+2	7.1269E-2
7.4152E+2	7.3291E-2
7.4174E+2	7.6441E-2
7.4196E+2	7.4007E-2
7.4217E+2	8.0391E-2
7.4239E+2	7.7192E-2
7.4261E+2	8.3159E-2
7.4283E+2	7.9783E-2
7.4304E+2	8.1932E-2
7.4326E+2	8.5636E-2
7.4348E+2	8.9011E-2
7.4370E+2	8.7073E-2
7.4391E+2	8.5352E-2
7.4413E+2	9.1138E-2
7.4435E+2	8.7876E-2
7.4457E+2	8.8272E-2
7.4478E+2	9.6388E-2
7.4500E+2	8.9822E-2
7.4522E+2	9.7246E-2
7.4544E+2	9.4322E-2
7.4565E+2	9.8082E-2
7.4587E+2	9.9664E-2
7.4609E+2	1.0070E-1
7.4631E+2	9.9559E-2
7.4652E+2	1.0139E-1
7.4674E+2	1.0510E-1
7.4696E+2	1.0884E-1
7.4717E+2	1.0897E-1
7.4739E+2	1.1117E-1
7.4761E+2	1.0623E-1
7.4783E+2	1.1181E-1
7.4804E+2	1.1451E-1
7.4826E+2	1.1524E-1
7.4848E+2	1.1598E-1
7.4869E+2	1.1792E-1
7.4891E+2	1.1519E-1
7.4913E+2	1.2084E-1
7.4935E+2	1.2354E-1
7.4956E+2	1.2208E-1
7.4978E+2	1.2535E-1
7.5000E+2	1.2875E-1
7.5021E+2	1.2965E-1
7.5043E+2	1.3510E-1
7.5065E+2	1.3143E-1
7.5087E+2	1.2784E-1
7.5108E+2	1.3367E-1
7.5130E+2	1.2923E-1
7.5152E+2	1.3913E-1
7.5173E+2	1.3678E-1
7.5195E+2	1.4203E-1
7.5217E+2	1.3960E-1
7.5238E+2	1.4766E-1
7.5260E+2	1.4371E-1
7.5282E+2	1.4795E-1
7.5303E+2	1.5201E-1
7.5325E+2	1.5627E-1
7.5347E+2	1.5558E-1
7.5368E+2	1.5883E-1
7.5390E+2	1.6032E-1
7.5412E+2	1.6454E-1
7.5433E+2	1.6236E-1
7.5455E+2	1.6485E-1
7.5477E+2	1.6300E-1
7.5498E+2	1.6534E-1
7.5520E+2	1.6796E-1
7.5542E+2	1.7208E-1
7.5563E+2	1.7034E-1
7.5585E+2	1.7777E-1
7.5607E+2	1.7359E-1
7.5628E+2	1.7482E-1
7.5650E+2	1.8068E-1
7.5672E+2	1.8299E-1
7.5693E+2	1.8542E-1
7.5715E+2	1.8595E-1
7.5737E+2	1.8562E-1
7.5758E+2	1.9450E-1
7.5780E+2	1.9473E-1
7.5802E+2	1.9292E-1
7.5823E+2	1.9948E-1
7.5845E+2	1.9646E-1
7.5866E+2	2.0388E-1
7.5888E+2	2.0811E-1
7.5910E+2	2.0497E-1
7.5931E+2	2.1284E-1
7.5953E+2	2.1367E-1
7.5975E+2	2.1561E-1
7.5996E+2	2.1782E-1
7.6018E+2	2.1472E-1
7.6040E+2	2.1592E-1
7.6061E+2	2.1823E-1
7.6083E+2	2.2285E-1
7.6104E+2	2.2264E-1
7.6126E+2	2.2065E-1
7.6148E+2	2.2785E-1
7.6169E+2	2.3175E-1
7.6191E+2	2.3462E-1
7.6212E+2	2.4001E-1
7.6234E+2	2.3908E-1
7.6256E+2	2.4181E-1
7.6277E+2	2.4866E-1
7.6299E+2	2.5050E-1
7.6320E+2	2.4919E-1
7.6342E+2	2.5463E-1
7.6364E+2	2.5539E-1
7.6385E+2	2.6615E-1
7.6407E+2	2.6081E-1
7.6428E+2	2.6376E-1
7.6450E+2	2.6915E-1
7.6472E+2	2.7434E-1
7.6493E+2	2.7439E-1
7.6515E+2	2.8051E-1
7.6536E+2	2.7716E-1
7.6558E+2	2.7800E-1
7.6579E+2	2.7532E-1
7.6601E+2	2.8460E-1
7.6623E+2	2.7979E-1
7.6644E+2	2.8688E-1
7.6666E+2	2.8944E-1
7.6687E+2	2.9420E-1
7.6709E+2	2.8756E-1
7.6730E+2	2.9672E-1
7.6752E+2	2.9330E-1
7.6774E+2	3.0226E-1
7.6795E+2	3.0862E-1
7.6817E+2	3.0634E-1
7.6838E+2	3.1404E-1
7.6860E+2	3.1528E-1
7.6881E+2	3.1413E-1
7.6903E+2	3.2739E-1
7.6925E+2	3.3020E-1
7.6946E+2	3.2668E-1
7.6968E+2	3.3422E-1
7.6989E+2	3.3170E-1
7.7011E+2	3.3860E-1
7.7032E+2	3.4223E-1
7.7054E+2	3.5078E-1
7.7075E+2	3.4754E-1
7.7097E+2	3.4289E-1
7.7118E+2	3.4741E-1
7.7140E+2	3.4176E-1
7.7161E+2	3.4646E-1
7.7183E+2	3.4436E-1
7.7205E+2	3.5177E-1
7.7226E+2	3.5283E-1
7.7248E+2	3.5723E-1
7.7269E+2	3.5449E-1
7.7291E+2	3.5727E-1
7.7312E+2	3.7071E-1
7.7334E+2	3.6325E-1
7.7355E+2	3.6435E-1
7.7377E+2	3.7644E-1
7.7398E+2	3.7750E-1
7.7420E+2	3.8230E-1
7.7441E+2	3.8768E-1
7.7463E+2	3.8805E-1
7.7484E+2	3.9251E-1
7.7506E+2	3.9280E-1
7.7527E+2	3.9788E-1
7.7549E+2	3.9226E-1
7.7570E+2	4.0266E-1
7.7592E+2	4.0203E-1
7.7613E+2	4.0749E-1
7.7635E+2	4.0708E-1
7.7656E+2	4.1136E-1
7.7678E+2	4.1113E-1
7.7699E+2	3.9758E-1
7.7721E+2	4.0412E-1
7.7742E+2	4.0127E-1
7.7764E+2	4.0618E-1
7.7785E+2	4.0567E-1
7.7807E+2	4.0645E-1
7.7828E+2	4.0356E-1
7.7850E+2	4.1460E-1
7.7871E+2	4.1265E-1
7.7893E+2	4.1525E-1
7.7914E+2	4.1582E-1
7.7936E+2	4.1195E-1
7.7957E+2	4.1561E-1
7.7978E+2	4.1966E-1
7.8000E+2	4.1673E-1
7.8021E+2	4.2822E-1
7.8043E+2	4.2841E-1
7.8064E+2	4.3250E-1
7.8086E+2	4.3369E-1
7.8107E+2	4.3105E-1
7.8129E+2	4.3285E-1
7.8150E+2	4.3308E-1
7.8172E+2	4.3290E-1
7.8193E+2	4.3129E-1
7.8214E+2	4.3124E-1
7.8236E+2	4.3015E-1
7.8257E+2	4.3499E-1
7.8279E+2	4.2845E-1
7.8300E+2	4.3013E-1
7.8322E+2	4.2730E-1
7.8343E+2	4.2413E-1
7.8365E+2	4.2485E-1
7.8386E+2	4.1988E-1
7.8407E+2	4.2080E-1
7.8429E+2	4.2578E-1
7.8450E+2	4.2267E-1
7.8472E+2	4.3130E-1
7.8493E+2	4.1960E-1
7.8515E+2	4.2343E-1
7.8536E+2	4.2664E-1
7.8557E+2	4.2396E-1
7.8579E+2	4.3623E-1
7.8600E+2	4.3163E-1
7.8622E+2	4.2282E-1
7.8643E+2	4.3004E-1
7.8665E+2	4.2765E-1
7.8686E+2	4.2592E-1
7.8707E+2	4.3511E-1
7.8729E+2	4.2203E-1
7.8750E+2	4.2743E-1
7.8772E+2	4.2774E-1
7.8793E+2	4.1819E-1
7.8814E+2	4.1451E-1
7.8836E+2	4.1831E-1
7.8857E+2	4.1243E-1
7.8879E+2	4.1407E-1
7.8900E+2	4.1592E-1
7.8921E+2	4.0888E-1
7.8943E+2	3.9706E-1
7.8964E+2	4.0171E-1
7.8985E+2	4.0314E-1
7.9007E+2	3.9338E-1
7.9028E+2	3.9236E-1
7.9050E+2	3.9254E-1
7.9071E+2	3.9964E-1
7.9092E+2	3.9074E-1
7.9114E+2	3.9010E-1
7.9135E+2	3.9061E-1
7.9157E+2	3.8578E-1
7.9178E+2	3.9060E-1
7.9199E+2	3.9586E-1
7.9221E+2	3.8803E-1
7.9242E+2	3.8265E-1
7.9263E+2	3.8497E-1
7.9285E+2	3.7970E-1
7.9306E+2	3.7694E-1
7.9327E+2	3.8076E-1
7.9349E+2	3.7220E-1
7.9370E+2	3.6855E-1
7.9392E+2	3.6833E-1
7.9413E+2	3.5639E-1
7.9434E+2	3.5956E-1
7.9456E+2	3.5909E-1
7.9477E+2	3.5594E-1
7.9498E+2	3.4887E-1
7.9520E+2	3.4084E-1
7.9541E+2	3.4134E-1
7.9562E+2	3.3905E-1
7.9584E+2	3.3015E-1
7.9605E+2	3.2482E-1
7.9626E+2	3.3019E-1
7.9648E+2	3.2602E-1
7.9669E+2	3.2496E-1
7.9690E+2	3.2116E-1
7.9712E+2	3.1212E-1
7.9733E+2	3.1755E-1
7.9754E+2	3.1241E-1
7.9776E+2	3.0654E-1
7.9797E+2	3.0973E-1
7.9818E+2	3.0740E-1
7.9840E+2	3.0806E-1
7.9861E+2	2.9688E-1
7.9882E+2	2.9392E-1
7.9904E+2	2.9305E-1
7.9925E+2	2.9105E-1
7.9946E+2	2.8872E-1
7.9967E+2	2.8513E-1
7.9989E+2	2.8145E-1
8.0010E+2	2.8395E-1
8.0031E+2	2.7494E-1
8.0053E+2	2.7166E-1
8.0074E+2	2.6658E-1
8.0095E+2	2.6403E-1
8.0117E+2	2.5726E-1
8.0138E+2	2.5438E-1
8.0159E+2	2.5629E-1
8.0180E+2	2.4834E-1
8.0202E+2	2.4395E-1
8.0223E+2	2.4301E-1
8.0244E+2	2.3851E-1
8.0266E+2	2.3310E-1
8.0287E+2	2.3386E-1
8.0308E+2	2.3031E-1
8.0329E+2	2.3052E-1
8.0351E+2	2.2364E-1
8.0372E+2	2.2765E-1
8.0393E+2	2.2382E-1
8.0415E+2	2.2068E-1
8.0436E+2	2.1689E-1
8.0457E+2	2.1604E-1
8.0478E+2	2.1269E-1
8.0500E+2	2.1370E-1
8.0521E+2	2.0858E-1
8.0542E+2	2.0280E-1
8.0563E+2	2.0218E-1
8.0585E+2	2.0382E-1
8.0606E+2	2.0136E-1
8.0627E+2	1.9317E-1
8.0648E+2	1.9352E-1
8.0670E+2	1.8418E-1
8.0691E+2	1.8522E-1
8.0712E+2	1.8044E-1
8.0733E+2	1.8014E-1
8.0755E+2	1.7921E-1
8.0776E+2	1.7122E-1
8.0797E+2	1.7090E-1
8.0818E+2	1.6574E-1
8.0840E+2	1.6737E-1
8.0861E+2	1.6322E-1
8.0882E+2	1.6111E-1
8.0903E+2	1.5738E-1
8.0925E+2	1.5972E-1
8.0946E+2	1.5751E-1
8.0967E+2	1.5473E-1
8.0988E+2	1.5107E-1
8.1009E+2	1.5097E-1
8.1031E+2	1.4924E-1
8.1052E+2	1.4698E-1
8.1073E+2	1.4528E-1
8.1094E+2	1.4635E-1
8.1116E+2	1.4222E-1
8.1137E+2	1.4034E-1
8.1158E+2	1.3720E-1
8.1179E+2	1.3485E-1
8.1200E+2	1.3345E-1
8.1222E+2	1.3018E-1
8.1243E+2	1.3047E-1
8.1264E+2	1.2541E-1
8.1285E+2	1.2538E-1
8.1306E+2	1.2242E-1
8.1328E+2	1.2193E-1
8.1349E+2	1.1748E-1
8.1370E+2	1.1581E-1
8.1391E+2	1.1498E-1
8.1412E+2	1.1253E-1
8.1434E+2	1.0981E-1
8.1455E+2	1.0882E-1
8.1476E+2	1.0706E-1
8.1497E+2	1.0525E-1
8.1518E+2	1.0199E-1
8.1540E+2	1.0226E-1
8.1561E+2	1.0240E-1
8.1582E+2	9.9527E-2
8.1603E+2	1.0258E-1
8.1624E+2	1.0135E-1
8.1645E+2	9.3898E-2
8.1667E+2	9.6287E-2
8.1688E+2	9.0331E-2
8.1709E+2	9.3365E-2
8.1730E+2	9.2992E-2
8.1751E+2	8.6890E-2
8.1772E+2	8.7813E-2
8.1794E+2	9.0014E-2
8.1815E+2	8.8179E-2
8.1836E+2	8.6719E-2
8.1857E+2	8.1472E-2
8.1878E+2	8.1029E-2
8.1899E+2	8.0149E-2
8.1921E+2	8.0822E-2
8.1942E+2	7.8154E-2
8.1963E+2	7.7757E-2
8.1984E+2	7.4848E-2
8.2005E+2	7.1016E-2
8.2026E+2	7.1495E-2
8.2047E+2	7.1101E-2
8.2069E+2	7.2028E-2
8.2090E+2	6.8246E-2
8.2111E+2	6.8219E-2
8.2132E+2	6.5987E-2
8.2153E+2	6.4675E-2
8.2174E+2	6.1708E-2
8.2195E+2	6.3305E-2
8.2216E+2	6.3232E-2
8.2238E+2	6.0785E-2
8.2259E+2	6.0270E-2
8.2280E+2	6.3921E-2
8.2301E+2	5.9692E-2
8.2322E+2	6.4130E-2
8.2343E+2	6.4125E-2
8.2364E+2	6.3794E-2
8.2385E+2	5.9840E-2
8.2407E+2	5.8945E-2
8.2428E+2	5.9325E-2
8.2449E+2	5.5958E-2
8.2470E+2	5.1801E-2
8.2491E+2	5.3039E-2
8.2512E+2	5.4075E-2
8.2533E+2	4.8375E-2
8.2554E+2	4.8024E-2
8.2575E+2	4.8465E-2
8.2596E+2	4.9591E-2
8.2618E+2	4.6703E-2
8.2639E+2	4.7622E-2
8.2660E+2	4.3626E-2
8.2681E+2	4.3844E-2
8.2702E+2	4.4746E-2
8.2723E+2	4.3278E-2
8.2744E+2	4.2831E-2
8.2765E+2	4.2472E-2
8.2786E+2	4.0960E-2
8.2807E+2	4.1788E-2
8.2828E+2	3.8701E-2
8.2849E+2	3.8539E-2
8.2871E+2	3.8218E-2
8.2892E+2	3.7076E-2
8.2913E+2	3.6368E-2
8.2934E+2	3.4459E-2
8.2955E+2	3.4275E-2
8.2976E+2	3.6767E-2
8.2997E+2	3.4272E-2
8.3018E+2	3.5720E-2
8.3039E+2	3.5145E-2
8.3060E+2	3.6350E-2
8.3081E+2	3.3696E-2
8.3102E+2	2.9967E-2
8.3123E+2	3.4047E-2
8.3144E+2	3.2063E-2
8.3165E+2	3.1637E-2
8.3186E+2	3.1618E-2
8.3208E+2	3.1363E-2
8.3229E+2	3.0441E-2
8.3250E+2	2.9133E-2
8.3271E+2	2.9293E-2
8.3292E+2	2.6960E-2
8.3313E+2	2.7033E-2
8.3334E+2	2.7456E-2
8.3355E+2	2.7149E-2
8.3376E+2	2.9222E-2
8.3397E+2	2.6954E-2
8.3418E+2	2.5036E-2
8.3439E+2	2.3641E-2
8.3460E+2	2.4927E-2
8.3481E+2	2.5786E-2
8.3502E+2	2.2857E-2
8.3523E+2	2.3682E-2
8.3544E+2	2.2826E-2
8.3565E+2	2.4691E-2
8.3586E+2	2.2192E-2
8.3607E+2	2.0932E-2
8.3628E+2	2.2471E-2
8.3649E+2	2.0130E-2
8.3670E+2	2.1093E-2
8.3691E+2	2.0617E-2
8.3712E+2	2.0844E-2
8.3733E+2	2.0728E-2
8.3754E+2	2.1221E-2
8.3775E+2	2.1331E-2
8.3796E+2	1.9704E-2
8.3817E+2	2.0192E-2
8.3838E+2	1.8449E-2
8.3859E+2	1.8334E-2
8.3880E+2	1.7698E-2
8.3901E+2	1.8376E-2
8.3922E+2	1.7671E-2
8.3943E+2	1.9235E-2
8.3964E+2	1.8438E-2
8.3985E+2	1.6513E-2
8.4006E+2	1.9142E-2
8.4027E+2	1.6276E-2
8.4048E+2	1.6567E-2
8.4069E+2	1.5742E-2
8.4090E+2	1.5340E-2
8.4111E+2	1.5285E-2
8.4132E+2	1.5524E-2
8.4153E+2	1.6046E-2
8.4174E+2	1.5534E-2
8.4195E+2	1.3407E-2
8.4216E+2	1.5764E-2
8.4237E+2	1.3397E-2
8.4258E+2	1.4473E-2
8.4279E+2	1.3143E-2
8.4300E+2	1.3954E-2
8.4321E+2	1.4285E-2
8.4342E+2	1.3476E-2
8.4362E+2	1.2730E-2
8.4383E+2	1.1875E-2
8.4404E+2	1.3307E-2
8.4425E+2	1.1139E-2
8.4446E+2	1.3199E-2
8.4467E+2	1.2598E-2
8.4488E+2	1.3293E-2
8.4509E+2	1.1920E-2
8.4530E+2	1.1688E-2
8.4551E+2	1.2659E-2
8.4572E+2	1.2812E-2
8.4593E+2	1.1953E-2
8.4614E+2	1.1589E-2
8.4635E+2	1.0926E-2
8.4656E+2	1.2068E-2
8.4677E+2	9.8651E-3
8.4697E+2	9.8926E-3
8.4718E+2	1.0029E-2
8.4739E+2	1.1160E-2
8.4760E+2	1.0521E-2
8.4781E+2	9.7378E-3
8.4802E+2	8.9266E-3
8.4823E+2	8.6211E-3
8.4844E+2	8.3903E-3
8.4865E+2	1.0003E-2
8.4886E+2	9.2725E-3
8.4907E+2	9.6277E-3
8.4928E+2	1.0488E-2
8.4948E+2	8.5179E-3
8.4969E+2	8.1325E-3
8.4990E+2	8.6940E-3
8.5011E+2	7.7751E-3
8.5032E+2	8.3079E-3
8.5053E+2	8.7948E-3
8.5074E+2	7.9392E-3
8.5095E+2	8.3515E-3
8.5116E+2	9.5323E-3
8.5137E+2	7.1574E-3
8.5157E+2	9.1928E-3
8.5178E+2	6.9901E-3
8.5199E+2	8.5435E-3
8.5220E+2	6.6795E-3
8.5241E+2	8.4792E-3
8.5262E+2	8.3411E-3
8.5283E+2	7.6642E-3
8.5304E+2	7.5147E-3
8.5324E+2	6.1100E-3
8.5345E+2	6.4306E-3
8.5366E+2	6.7743E-3
8.5387E+2	6.8428E-3
8.5408E+2	5.7250E-3
8.5429E+2	6.8250E-3
8.5450E+2	7.7244E-3
8.5471E+2	6.5094E-3
8.5491E+2	8.1938E-3
8.5512E+2	5.8902E-3
8.5533E+2	6.6349E-3
8.5554E+2	5.5576E-3
8.5575E+2	6.5773E-3
8.5596E+2	6.0329E-3
8.5617E+2	6.9667E-3
8.5637E+2	7.0526E-3
8.5658E+2	5.9010E-3
8.5679E+2	7.2530E-3
8.5700E+2	7.3046E-3
8.5721E+2	5.4197E-3
8.5742E+2	5.7864E-3
8.5762E+2	5.1620E-3
8.5783E+2	6.3594E-3
8.5804E+2	6.2564E-3
8.5825E+2	5.4314E-3
8.5846E+2	4.0966E-3
8.5867E+2	4.4977E-3
8.5887E+2	4.4577E-3
8.5908E+2	6.5206E-3
8.5929E+2	6.0452E-3
8.5950E+2	5.9996E-3
8.5971E+2	6.4181E-3
8.5992E+2	3.7077E-3
8.6012E+2	6.5906E-3
