PE UV       SUBTECH     SPECTRUM    ASCII       PEDS        4.00        
   -1
Void_TT.Sample.asc
23/04/05
08:58:24.00
23/04/05
08:58:24.00
Analyst

300.000000
1
Lambda 950
950L1311181
PerkinElmer UV WinLab 6.0.4.0738 / 1.61.00 Lambda 900

0
0
3350/servo 860.8/5
0
0
UV/VIS
1
1
1
RBeamAtt,SBeamAtt,150mm sphere / downward view, WB InGaAs Detector
0
0
0
0
Program
Program
3350/servo 860.8/5
3350/0.2 860.8/0.2
3350/0.2 860.8/0.2
0
9.50
 
 
 
0
 
860.8
319.2
860.8
Front
100
 
S:100 R:100
 
0
0
0
 
0
 
 
 
0
 
 
0
0
0
0
0
 
 
 
 
0
0


0
0
#HDR
-1
-1
#GR
nm
%R
1.0
0.0
1200.000000
-10.000000
91
8
99.069039
90.060253
#DATA
1200.000000	98.208771
1190.000000	98.207963
1180.000000	98.235580
1170.000000	98.248476
1160.000000	98.271470
1150.000000	98.277832
1140.000000	98.307902
1130.000000	98.319911
1120.000000	98.363553
1110.000000	98.414963
1100.000000	98.397425
1090.000000	98.433367
1080.000000	98.450119
1070.000000	98.489945
1060.000000	98.514826
1050.000000	98.483944
1040.000000	98.542979
1030.000000	98.526387
1020.000000	98.573001
1010.000000	98.575752
1000.000000	98.632988
990.000000	98.620525
980.000000	98.673607
970.000000	98.621668
960.000000	98.719734
950.000000	98.738487
940.000000	98.774384
930.000000	98.723011
920.000000	98.809273
910.000000	98.800961
900.000000	98.824784
890.000000	98.850493
880.000000	98.894007
870.000000	98.842041
860.000000	98.935397
850.000000	99.069039
840.000000	97.943531
830.000000	98.669448
820.000000	98.858281
810.000000	98.879021
800.000000	98.975491
790.000000	98.895626
780.000000	98.888905
770.000000	98.887447
760.000000	98.957318
750.000000	98.934078
740.000000	98.924728
730.000000	98.951574
720.000000	98.896285
710.000000	98.834776
700.000000	98.932403
690.000000	98.936484
680.000000	98.872623
670.000000	98.858694
660.000000	98.887946
650.000000	98.864370
640.000000	98.771999
630.000000	98.828622
620.000000	98.829757
610.000000	98.703998
600.000000	98.816020
590.000000	98.908709
580.000000	98.876371
570.000000	98.883707
560.000000	98.843845
550.000000	98.838755
540.000000	98.833131
530.000000	98.816533
520.000000	98.835574
510.000000	98.754067
500.000000	98.871735
490.000000	98.881460
480.000000	98.728980
470.000000	98.738365
460.000000	98.786505
450.000000	98.709337
440.000000	98.756575
430.000000	98.672744
420.000000	98.652468
410.000000	98.648887
400.000000	98.610367
390.000000	98.502406
380.000000	98.487096
370.000000	98.413332
360.000000	98.388174
350.000000	98.274873
340.000000	98.052933
330.000000	98.125283
320.000000	97.878718
310.000000	95.147924
300.000000	90.060253
