PLQY measurement:
Date: 	11.05.2023 13:57:49
Peak emission wavelength (nm): 748
 PLQY = 	 	9.10E-3
absorded light fraction (%): 81
MAYA saturard: FALSE
USB2000 saturaed: FALSE
wavelength	corrected total emission spec
6.7566E+2	2.6510E-3
6.7588E+2	5.4744E-3
6.7611E+2	1.0546E-3
6.7633E+2	1.2900E-3
6.7655E+2	4.8698E-3
6.7677E+2	4.4946E-3
6.7700E+2	4.9896E-3
6.7722E+2	6.1599E-3
6.7744E+2	2.1625E-3
6.7766E+2	2.9519E-3
6.7789E+2	2.1711E-3
6.7811E+2	2.1237E-3
6.7833E+2	2.9680E-3
6.7856E+2	7.6482E-3
6.7878E+2	4.1113E-3
6.7900E+2	4.0321E-3
6.7922E+2	4.1995E-3
6.7945E+2	2.9012E-3
6.7967E+2	1.9550E-3
6.7989E+2	5.9595E-3
6.8011E+2	1.6319E-3
6.8034E+2	5.5938E-3
6.8056E+2	8.8944E-3
6.8078E+2	3.9820E-3
6.8100E+2	3.9758E-3
6.8123E+2	3.7540E-3
6.8145E+2	6.3649E-3
6.8167E+2	-1.4279E-4
6.8189E+2	9.3706E-3
6.8212E+2	6.2086E-3
6.8234E+2	8.1026E-3
6.8256E+2	2.9659E-3
6.8278E+2	4.3799E-3
6.8300E+2	9.3404E-3
6.8323E+2	2.8114E-3
6.8345E+2	1.2128E-2
6.8367E+2	5.2938E-3
6.8389E+2	6.2017E-3
6.8412E+2	7.7362E-3
6.8434E+2	6.0689E-3
6.8456E+2	5.2609E-3
6.8478E+2	8.2176E-3
6.8500E+2	9.1396E-3
6.8523E+2	6.7418E-3
6.8545E+2	4.3662E-3
6.8567E+2	4.9002E-3
6.8589E+2	7.8616E-3
6.8611E+2	7.4199E-3
6.8634E+2	-1.2161E-3
6.8656E+2	1.0788E-2
6.8678E+2	6.0628E-3
6.8700E+2	6.5210E-3
6.8722E+2	8.1577E-3
6.8745E+2	4.2773E-3
6.8767E+2	1.0347E-2
6.8789E+2	1.1606E-2
6.8811E+2	7.9570E-3
6.8833E+2	9.0330E-3
6.8856E+2	7.4804E-3
6.8878E+2	8.8438E-3
6.8900E+2	6.3749E-3
6.8922E+2	9.0176E-3
6.8944E+2	1.2543E-2
6.8966E+2	1.3223E-2
6.8989E+2	1.1429E-2
6.9011E+2	5.9340E-3
6.9033E+2	8.4892E-3
6.9055E+2	1.0298E-2
6.9077E+2	1.0380E-2
6.9099E+2	6.9937E-3
6.9122E+2	9.7847E-3
6.9144E+2	8.4616E-3
6.9166E+2	9.8969E-3
6.9188E+2	1.3898E-2
6.9210E+2	8.9943E-3
6.9232E+2	1.4699E-2
6.9255E+2	1.1342E-2
6.9277E+2	8.1555E-3
6.9299E+2	1.2285E-2
6.9321E+2	9.0279E-3
6.9343E+2	1.3176E-2
6.9365E+2	1.2603E-2
6.9387E+2	8.3045E-3
6.9410E+2	1.2974E-2
6.9432E+2	1.7037E-2
6.9454E+2	1.5795E-2
6.9476E+2	1.3933E-2
6.9498E+2	1.2955E-2
6.9520E+2	1.5063E-2
6.9542E+2	2.1149E-2
6.9565E+2	1.7440E-2
6.9587E+2	1.4674E-2
6.9609E+2	1.9285E-2
6.9631E+2	1.8366E-2
6.9653E+2	1.7049E-2
6.9675E+2	1.4210E-2
6.9697E+2	1.8395E-2
6.9719E+2	2.1602E-2
6.9742E+2	1.8985E-2
6.9764E+2	1.5816E-2
6.9786E+2	1.5331E-2
6.9808E+2	2.0040E-2
6.9830E+2	1.6456E-2
6.9852E+2	2.3494E-2
6.9874E+2	1.9849E-2
6.9896E+2	1.6332E-2
6.9918E+2	2.4002E-2
6.9941E+2	1.4248E-2
6.9963E+2	2.0944E-2
6.9985E+2	1.9440E-2
7.0007E+2	1.7678E-2
7.0029E+2	2.5749E-2
7.0051E+2	2.1812E-2
7.0073E+2	2.1088E-2
7.0095E+2	2.2357E-2
7.0117E+2	2.1113E-2
7.0139E+2	2.1924E-2
7.0161E+2	2.2219E-2
7.0184E+2	2.3280E-2
7.0206E+2	2.8719E-2
7.0228E+2	2.2719E-2
7.0250E+2	2.8788E-2
7.0272E+2	2.5629E-2
7.0294E+2	2.6577E-2
7.0316E+2	2.7265E-2
7.0338E+2	2.6670E-2
7.0360E+2	2.5041E-2
7.0382E+2	2.6471E-2
7.0404E+2	3.1595E-2
7.0426E+2	2.7763E-2
7.0448E+2	3.0896E-2
7.0470E+2	2.6318E-2
7.0492E+2	3.5242E-2
7.0515E+2	3.1969E-2
7.0537E+2	3.2119E-2
7.0559E+2	3.1684E-2
7.0581E+2	3.0816E-2
7.0603E+2	3.1685E-2
7.0625E+2	3.2539E-2
7.0647E+2	3.2064E-2
7.0669E+2	3.5798E-2
7.0691E+2	3.2607E-2
7.0713E+2	3.7890E-2
7.0735E+2	3.7966E-2
7.0757E+2	3.7284E-2
7.0779E+2	3.7560E-2
7.0801E+2	3.5277E-2
7.0823E+2	3.7397E-2
7.0845E+2	3.8592E-2
7.0867E+2	4.1593E-2
7.0889E+2	4.3608E-2
7.0911E+2	4.0575E-2
7.0933E+2	4.6111E-2
7.0955E+2	4.3272E-2
7.0977E+2	4.0454E-2
7.0999E+2	4.2862E-2
7.1021E+2	4.5647E-2
7.1043E+2	4.3859E-2
7.1065E+2	4.8025E-2
7.1087E+2	4.7285E-2
7.1109E+2	4.8320E-2
7.1131E+2	4.9446E-2
7.1153E+2	4.9278E-2
7.1175E+2	5.2319E-2
7.1197E+2	5.2694E-2
7.1219E+2	5.5248E-2
7.1241E+2	5.5036E-2
7.1263E+2	5.8218E-2
7.1285E+2	6.3533E-2
7.1307E+2	5.5825E-2
7.1329E+2	6.4246E-2
7.1351E+2	6.4007E-2
7.1373E+2	5.9405E-2
7.1395E+2	6.4573E-2
7.1417E+2	6.7333E-2
7.1439E+2	6.4012E-2
7.1461E+2	6.9857E-2
7.1483E+2	7.0003E-2
7.1505E+2	7.3168E-2
7.1527E+2	7.0290E-2
7.1549E+2	7.3527E-2
7.1571E+2	7.0950E-2
7.1593E+2	7.2553E-2
7.1615E+2	7.1968E-2
7.1637E+2	7.6142E-2
7.1659E+2	7.9521E-2
7.1681E+2	7.6410E-2
7.1703E+2	8.6763E-2
7.1725E+2	8.6123E-2
7.1747E+2	8.6582E-2
7.1769E+2	8.5400E-2
7.1791E+2	8.3306E-2
7.1813E+2	8.5793E-2
7.1835E+2	8.8248E-2
7.1857E+2	9.4100E-2
7.1879E+2	9.9833E-2
7.1901E+2	9.4941E-2
7.1923E+2	9.3869E-2
7.1944E+2	9.3040E-2
7.1966E+2	1.0303E-1
7.1988E+2	1.0492E-1
7.2010E+2	1.0169E-1
7.2032E+2	1.0446E-1
7.2054E+2	1.0449E-1
7.2076E+2	1.1349E-1
7.2098E+2	1.0556E-1
7.2120E+2	1.1024E-1
7.2142E+2	1.0976E-1
7.2164E+2	1.1413E-1
7.2186E+2	1.1706E-1
7.2208E+2	1.1893E-1
7.2230E+2	1.2158E-1
7.2252E+2	1.2526E-1
7.2273E+2	1.2227E-1
7.2295E+2	1.2263E-1
7.2317E+2	1.2835E-1
7.2339E+2	1.2981E-1
7.2361E+2	1.3416E-1
7.2383E+2	1.3530E-1
7.2405E+2	1.3929E-1
7.2427E+2	1.4098E-1
7.2449E+2	1.4424E-1
7.2471E+2	1.4446E-1
7.2493E+2	1.4672E-1
7.2514E+2	1.4548E-1
7.2536E+2	1.4575E-1
7.2558E+2	1.5501E-1
7.2580E+2	1.5269E-1
7.2602E+2	1.5263E-1
7.2624E+2	1.5772E-1
7.2646E+2	1.5666E-1
7.2668E+2	1.6271E-1
7.2690E+2	1.6367E-1
7.2711E+2	1.6872E-1
7.2733E+2	1.6481E-1
7.2755E+2	1.7066E-1
7.2777E+2	1.7795E-1
7.2799E+2	1.7830E-1
7.2821E+2	1.7334E-1
7.2843E+2	1.7809E-1
7.2865E+2	1.8712E-1
7.2886E+2	1.8800E-1
7.2908E+2	1.8498E-1
7.2930E+2	1.9038E-1
7.2952E+2	1.9943E-1
7.2974E+2	1.9481E-1
7.2996E+2	1.9872E-1
7.3018E+2	1.9834E-1
7.3039E+2	1.9732E-1
7.3061E+2	2.0037E-1
7.3083E+2	2.0399E-1
7.3105E+2	2.1087E-1
7.3127E+2	2.0565E-1
7.3149E+2	2.0801E-1
7.3171E+2	2.1302E-1
7.3192E+2	2.1316E-1
7.3214E+2	2.2100E-1
7.3236E+2	2.1952E-1
7.3258E+2	2.2208E-1
7.3280E+2	2.2464E-1
7.3302E+2	2.3009E-1
7.3323E+2	2.3274E-1
7.3345E+2	2.3596E-1
7.3367E+2	2.3619E-1
7.3389E+2	2.3715E-1
7.3411E+2	2.4618E-1
7.3433E+2	2.4158E-1
7.3454E+2	2.4325E-1
7.3476E+2	2.3784E-1
7.3498E+2	2.4187E-1
7.3520E+2	2.4558E-1
7.3542E+2	2.3892E-1
7.3564E+2	2.5662E-1
7.3585E+2	2.5422E-1
7.3607E+2	2.4413E-1
7.3629E+2	2.5355E-1
7.3651E+2	2.5500E-1
7.3673E+2	2.6168E-1
7.3694E+2	2.5440E-1
7.3716E+2	2.7004E-1
7.3738E+2	2.6785E-1
7.3760E+2	2.7080E-1
7.3782E+2	2.7672E-1
7.3803E+2	2.7694E-1
7.3825E+2	2.7048E-1
7.3847E+2	2.7009E-1
7.3869E+2	2.7461E-1
7.3891E+2	2.7836E-1
7.3912E+2	2.7562E-1
7.3934E+2	2.7896E-1
7.3956E+2	2.7236E-1
7.3978E+2	2.7860E-1
7.4000E+2	2.8206E-1
7.4021E+2	2.8034E-1
7.4043E+2	2.7287E-1
7.4065E+2	2.7643E-1
7.4087E+2	2.8511E-1
7.4108E+2	2.8331E-1
7.4130E+2	2.8294E-1
7.4152E+2	2.8447E-1
7.4174E+2	2.8213E-1
7.4196E+2	2.9809E-1
7.4217E+2	2.9855E-1
7.4239E+2	2.9303E-1
7.4261E+2	2.9559E-1
7.4283E+2	2.9653E-1
7.4304E+2	2.9853E-1
7.4326E+2	2.9620E-1
7.4348E+2	3.0097E-1
7.4370E+2	2.9401E-1
7.4391E+2	2.9907E-1
7.4413E+2	2.9856E-1
7.4435E+2	2.9752E-1
7.4457E+2	2.9903E-1
7.4478E+2	2.9516E-1
7.4500E+2	2.9219E-1
7.4522E+2	2.9440E-1
7.4544E+2	2.9348E-1
7.4565E+2	2.9176E-1
7.4587E+2	2.9298E-1
7.4609E+2	2.9082E-1
7.4631E+2	2.9027E-1
7.4652E+2	2.9445E-1
7.4674E+2	2.8901E-1
7.4696E+2	2.9444E-1
7.4717E+2	3.0049E-1
7.4739E+2	3.0025E-1
7.4761E+2	2.9122E-1
7.4783E+2	3.0108E-1
7.4804E+2	2.9969E-1
7.4826E+2	2.9959E-1
7.4848E+2	2.9904E-1
7.4869E+2	2.9261E-1
7.4891E+2	2.9551E-1
7.4913E+2	2.9317E-1
7.4935E+2	2.9144E-1
7.4956E+2	2.9262E-1
7.4978E+2	2.8980E-1
7.5000E+2	2.8579E-1
7.5021E+2	2.8487E-1
7.5043E+2	2.8724E-1
7.5065E+2	2.8853E-1
7.5087E+2	2.8704E-1
7.5108E+2	2.8807E-1
7.5130E+2	2.8107E-1
7.5152E+2	2.8248E-1
7.5173E+2	2.8176E-1
7.5195E+2	2.8368E-1
7.5217E+2	2.8455E-1
7.5238E+2	2.8454E-1
7.5260E+2	2.8413E-1
7.5282E+2	2.8483E-1
7.5303E+2	2.7851E-1
7.5325E+2	2.8259E-1
7.5347E+2	2.7661E-1
7.5368E+2	2.7936E-1
7.5390E+2	2.7391E-1
7.5412E+2	2.7186E-1
7.5433E+2	2.7010E-1
7.5455E+2	2.7338E-1
7.5477E+2	2.7349E-1
7.5498E+2	2.6672E-1
7.5520E+2	2.7070E-1
7.5542E+2	2.6786E-1
7.5563E+2	2.6538E-1
7.5585E+2	2.6094E-1
7.5607E+2	2.5768E-1
7.5628E+2	2.6123E-1
7.5650E+2	2.5363E-1
7.5672E+2	2.5336E-1
7.5693E+2	2.5682E-1
7.5715E+2	2.5564E-1
7.5737E+2	2.5072E-1
7.5758E+2	2.5455E-1
7.5780E+2	2.4790E-1
7.5802E+2	2.4879E-1
7.5823E+2	2.4408E-1
7.5845E+2	2.5390E-1
7.5866E+2	2.5124E-1
7.5888E+2	2.4839E-1
7.5910E+2	2.4793E-1
7.5931E+2	2.4779E-1
7.5953E+2	2.4296E-1
7.5975E+2	2.3688E-1
7.5996E+2	2.3924E-1
7.6018E+2	2.3605E-1
7.6040E+2	2.3471E-1
7.6061E+2	2.3040E-1
7.6083E+2	2.2785E-1
7.6104E+2	2.3237E-1
7.6126E+2	2.2001E-1
7.6148E+2	2.2546E-1
7.6169E+2	2.2221E-1
7.6191E+2	2.2054E-1
7.6212E+2	2.1840E-1
7.6234E+2	2.1774E-1
7.6256E+2	2.2031E-1
7.6277E+2	2.1868E-1
7.6299E+2	2.1638E-1
7.6320E+2	2.1715E-1
7.6342E+2	2.0720E-1
7.6364E+2	2.1131E-1
7.6385E+2	2.0862E-1
7.6407E+2	2.0980E-1
7.6428E+2	2.0517E-1
7.6450E+2	2.0839E-1
7.6472E+2	2.0453E-1
7.6493E+2	2.0341E-1
7.6515E+2	1.9700E-1
7.6536E+2	1.9651E-1
7.6558E+2	1.9551E-1
7.6579E+2	1.8905E-1
7.6601E+2	1.8646E-1
7.6623E+2	1.9084E-1
7.6644E+2	1.7856E-1
7.6666E+2	1.8497E-1
7.6687E+2	1.8316E-1
7.6709E+2	1.8058E-1
7.6730E+2	1.8004E-1
7.6752E+2	1.7899E-1
7.6774E+2	1.7573E-1
7.6795E+2	1.7073E-1
7.6817E+2	1.7368E-1
7.6838E+2	1.7321E-1
7.6860E+2	1.6930E-1
7.6881E+2	1.6995E-1
7.6903E+2	1.6678E-1
7.6925E+2	1.6565E-1
7.6946E+2	1.6322E-1
7.6968E+2	1.6642E-1
7.6989E+2	1.6218E-1
7.7011E+2	1.6509E-1
7.7032E+2	1.6293E-1
7.7054E+2	1.6162E-1
7.7075E+2	1.6220E-1
7.7097E+2	1.5755E-1
7.7118E+2	1.4916E-1
7.7140E+2	1.3980E-1
7.7161E+2	1.4564E-1
7.7183E+2	1.3847E-1
7.7205E+2	1.3677E-1
7.7226E+2	1.3555E-1
7.7248E+2	1.3310E-1
7.7269E+2	1.3126E-1
7.7291E+2	1.2688E-1
7.7312E+2	1.2765E-1
7.7334E+2	1.2683E-1
7.7355E+2	1.2719E-1
7.7377E+2	1.2426E-1
7.7398E+2	1.2167E-1
7.7420E+2	1.2171E-1
7.7441E+2	1.2058E-1
7.7463E+2	1.2137E-1
7.7484E+2	1.1960E-1
7.7506E+2	1.1796E-1
7.7527E+2	1.1344E-1
7.7549E+2	1.1604E-1
7.7570E+2	1.1721E-1
7.7592E+2	1.0840E-1
7.7613E+2	1.0910E-1
7.7635E+2	1.0653E-1
7.7656E+2	1.0344E-1
7.7678E+2	1.0358E-1
7.7699E+2	9.9022E-2
7.7721E+2	1.0378E-1
7.7742E+2	9.6577E-2
7.7764E+2	9.2608E-2
7.7785E+2	8.9423E-2
7.7807E+2	9.4443E-2
7.7828E+2	9.1487E-2
7.7850E+2	9.2389E-2
7.7871E+2	8.8260E-2
7.7893E+2	8.4314E-2
7.7914E+2	8.6858E-2
7.7936E+2	8.4845E-2
7.7957E+2	8.4216E-2
7.7978E+2	8.2239E-2
7.8000E+2	8.3110E-2
7.8021E+2	7.7209E-2
7.8043E+2	7.8787E-2
7.8064E+2	7.7466E-2
7.8086E+2	7.6397E-2
7.8107E+2	7.2075E-2
7.8129E+2	7.2339E-2
7.8150E+2	7.4026E-2
7.8172E+2	7.4254E-2
7.8193E+2	6.7508E-2
7.8214E+2	7.1004E-2
7.8236E+2	6.5473E-2
7.8257E+2	6.6280E-2
7.8279E+2	6.4229E-2
7.8300E+2	6.5445E-2
7.8322E+2	6.1878E-2
7.8343E+2	6.1452E-2
7.8365E+2	5.9332E-2
7.8386E+2	5.6851E-2
7.8407E+2	6.0419E-2
7.8429E+2	5.5942E-2
7.8450E+2	5.4607E-2
7.8472E+2	5.6999E-2
7.8493E+2	5.5032E-2
7.8515E+2	5.5612E-2
7.8536E+2	5.2677E-2
7.8557E+2	5.2623E-2
7.8579E+2	4.7831E-2
7.8600E+2	4.9022E-2
7.8622E+2	4.8388E-2
7.8643E+2	4.9753E-2
7.8665E+2	4.9632E-2
7.8686E+2	4.7529E-2
7.8707E+2	4.6390E-2
7.8729E+2	4.5077E-2
7.8750E+2	4.6255E-2
7.8772E+2	4.6031E-2
7.8793E+2	4.4249E-2
7.8814E+2	3.8864E-2
7.8836E+2	4.1349E-2
7.8857E+2	4.2131E-2
7.8879E+2	3.6874E-2
7.8900E+2	4.0701E-2
7.8921E+2	3.7694E-2
7.8943E+2	3.6786E-2
7.8964E+2	3.5450E-2
7.8985E+2	3.7644E-2
7.9007E+2	3.6527E-2
7.9028E+2	3.3221E-2
7.9050E+2	3.4515E-2
7.9071E+2	3.4719E-2
7.9092E+2	3.3508E-2
7.9114E+2	3.1136E-2
7.9135E+2	3.1057E-2
7.9157E+2	3.0852E-2
7.9178E+2	3.1496E-2
7.9199E+2	2.9866E-2
7.9221E+2	2.9160E-2
7.9242E+2	2.9289E-2
7.9263E+2	3.1696E-2
7.9285E+2	3.0490E-2
7.9306E+2	2.7739E-2
7.9327E+2	2.8190E-2
7.9349E+2	2.6509E-2
7.9370E+2	2.7533E-2
7.9392E+2	2.5885E-2
7.9413E+2	2.7752E-2
7.9434E+2	2.4471E-2
7.9456E+2	2.4896E-2
7.9477E+2	2.4645E-2
7.9498E+2	2.5456E-2
7.9520E+2	2.3662E-2
7.9541E+2	2.4413E-2
7.9562E+2	2.3745E-2
7.9584E+2	2.3317E-2
7.9605E+2	2.1336E-2
7.9626E+2	2.1770E-2
7.9648E+2	2.0918E-2
7.9669E+2	2.2331E-2
7.9690E+2	2.2327E-2
7.9712E+2	2.0495E-2
7.9733E+2	2.1461E-2
7.9754E+2	2.0603E-2
7.9776E+2	1.7416E-2
7.9797E+2	1.9402E-2
7.9818E+2	2.0811E-2
7.9840E+2	1.8613E-2
7.9861E+2	1.8510E-2
7.9882E+2	1.9480E-2
7.9904E+2	1.8729E-2
7.9925E+2	1.6781E-2
7.9946E+2	1.7067E-2
7.9967E+2	1.4256E-2
7.9989E+2	1.8720E-2
8.0010E+2	1.7275E-2
8.0031E+2	1.6248E-2
8.0053E+2	1.4846E-2
8.0074E+2	1.7028E-2
8.0095E+2	1.6922E-2
8.0117E+2	1.4881E-2
8.0138E+2	1.5192E-2
8.0159E+2	1.3051E-2
8.0180E+2	1.5078E-2
8.0202E+2	1.6138E-2
8.0223E+2	1.4320E-2
8.0244E+2	1.2835E-2
8.0266E+2	1.4039E-2
8.0287E+2	1.2640E-2
8.0308E+2	1.0761E-2
8.0329E+2	1.3748E-2
8.0351E+2	1.5247E-2
8.0372E+2	1.2079E-2
8.0393E+2	1.1710E-2
8.0415E+2	1.4378E-2
8.0436E+2	1.4773E-2
8.0457E+2	1.1448E-2
8.0478E+2	1.3392E-2
8.0500E+2	1.2372E-2
8.0521E+2	1.1378E-2
8.0542E+2	1.0620E-2
8.0563E+2	1.2881E-2
8.0585E+2	9.4987E-3
8.0606E+2	1.2278E-2
8.0627E+2	1.3089E-2
8.0648E+2	1.0102E-2
8.0670E+2	8.8477E-3
8.0691E+2	1.2516E-2
8.0712E+2	9.9723E-3
8.0733E+2	1.0632E-2
8.0755E+2	9.8491E-3
8.0776E+2	1.1402E-2
8.0797E+2	1.0295E-2
8.0818E+2	9.2186E-3
8.0840E+2	1.0572E-2
8.0861E+2	1.0068E-2
8.0882E+2	9.1344E-3
8.0903E+2	8.2879E-3
8.0925E+2	9.0622E-3
8.0946E+2	6.5550E-3
8.0967E+2	5.4859E-3
8.0988E+2	8.8832E-3
8.1009E+2	9.8454E-3
8.1031E+2	8.5852E-3
8.1052E+2	9.1795E-3
8.1073E+2	8.2451E-3
8.1094E+2	8.3442E-3
8.1116E+2	7.7961E-3
8.1137E+2	6.9753E-3
8.1158E+2	7.8441E-3
8.1179E+2	6.5472E-3
8.1200E+2	8.4992E-3
8.1222E+2	8.9815E-3
8.1243E+2	8.3313E-3
8.1264E+2	6.2465E-3
8.1285E+2	6.2977E-3
8.1306E+2	7.6504E-3
8.1328E+2	6.8632E-3
8.1349E+2	8.3345E-3
8.1370E+2	6.6129E-3
8.1391E+2	6.2637E-3
8.1412E+2	6.0845E-3
8.1434E+2	7.8800E-3
8.1455E+2	1.0400E-2
8.1476E+2	6.4013E-3
8.1497E+2	6.3264E-3
8.1518E+2	6.5229E-3
8.1540E+2	5.8004E-3
8.1561E+2	5.3927E-3
8.1582E+2	6.0658E-3
8.1603E+2	4.9586E-3
8.1624E+2	6.3669E-3
8.1645E+2	7.9544E-3
8.1667E+2	5.8854E-3
8.1688E+2	5.9430E-3
8.1709E+2	6.6079E-3
8.1730E+2	5.7684E-3
8.1751E+2	7.6892E-3
8.1772E+2	5.0534E-3
8.1794E+2	6.0538E-3
8.1815E+2	8.4458E-3
8.1836E+2	5.0877E-3
8.1857E+2	6.5554E-3
8.1878E+2	4.9879E-3
8.1899E+2	6.4834E-3
8.1921E+2	3.8749E-3
8.1942E+2	5.7287E-3
8.1963E+2	5.0378E-3
8.1984E+2	5.8187E-3
8.2005E+2	3.9032E-3
8.2026E+2	4.9715E-3
8.2047E+2	5.9967E-3
8.2069E+2	5.2775E-3
8.2090E+2	4.4515E-3
8.2111E+2	5.0577E-3
8.2132E+2	5.8839E-3
8.2153E+2	4.3558E-3
8.2174E+2	6.2417E-3
8.2195E+2	1.0894E-3
8.2216E+2	6.3321E-3
8.2238E+2	4.8721E-3
8.2259E+2	5.5953E-3
8.2280E+2	3.9345E-3
8.2301E+2	6.5347E-3
8.2322E+2	1.3669E-2
8.2343E+2	1.4927E-2
8.2364E+2	1.2814E-2
8.2385E+2	1.5240E-2
8.2407E+2	1.1246E-2
8.2428E+2	7.3186E-3
8.2449E+2	6.3854E-3
8.2470E+2	5.0031E-3
8.2491E+2	5.4033E-3
8.2512E+2	5.1644E-3
8.2533E+2	3.8140E-3
8.2554E+2	4.2970E-3
8.2575E+2	3.8817E-3
8.2596E+2	3.7802E-3
8.2618E+2	3.7197E-3
8.2639E+2	4.9812E-3
8.2660E+2	1.9527E-3
8.2681E+2	3.1962E-3
8.2702E+2	4.1203E-3
8.2723E+2	3.9478E-3
8.2744E+2	4.3585E-3
8.2765E+2	3.0497E-3
8.2786E+2	2.8429E-3
8.2807E+2	4.0717E-3
8.2828E+2	2.9232E-3
8.2849E+2	2.0048E-3
8.2871E+2	3.3617E-3
8.2892E+2	4.3591E-3
8.2913E+2	3.8465E-3
8.2934E+2	2.0370E-3
8.2955E+2	4.1957E-3
8.2976E+2	5.2793E-3
8.2997E+2	2.6742E-3
8.3018E+2	3.0368E-3
8.3039E+2	3.6745E-3
8.3060E+2	3.4212E-3
8.3081E+2	3.7655E-3
8.3102E+2	3.5183E-3
8.3123E+2	6.2674E-3
8.3144E+2	4.5570E-3
8.3165E+2	3.9824E-3
8.3186E+2	2.0404E-3
8.3208E+2	3.6179E-3
8.3229E+2	5.1650E-3
8.3250E+2	2.6984E-3
8.3271E+2	4.5717E-3
8.3292E+2	3.8231E-3
8.3313E+2	3.2675E-3
8.3334E+2	4.0072E-3
8.3355E+2	7.2305E-4
8.3376E+2	4.5409E-3
8.3397E+2	3.6308E-3
8.3418E+2	3.3093E-3
8.3439E+2	4.5081E-3
