PLQY measurement:
Date: 	11.05.2023 13:49:10
Peak emission wavelength (nm): 738
 PLQY = 	 	3.30E-3
absorded light fraction (%): 77
MAYA saturard: FALSE
USB2000 saturaed: FALSE
wavelength	corrected total emission spec
6.6629E+2	1.7164E-3
6.6651E+2	6.0618E-3
6.6673E+2	2.5346E-3
6.6696E+2	2.6727E-3
6.6718E+2	2.6696E-3
6.6740E+2	9.6213E-4
6.6763E+2	4.9442E-3
6.6785E+2	5.0772E-3
6.6807E+2	2.1667E-3
6.6830E+2	6.2395E-3
6.6852E+2	2.8953E-3
6.6874E+2	1.7655E-3
6.6897E+2	3.6343E-3
6.6919E+2	6.3098E-3
6.6941E+2	1.5867E-3
6.6964E+2	4.3947E-3
6.6986E+2	6.9762E-3
6.7008E+2	6.3644E-3
6.7031E+2	6.6947E-3
6.7053E+2	4.5532E-3
6.7075E+2	1.8490E-3
6.7098E+2	4.2786E-3
6.7120E+2	4.3643E-3
6.7142E+2	7.2409E-3
6.7165E+2	5.4214E-3
6.7187E+2	5.5193E-3
6.7209E+2	4.6731E-3
6.7232E+2	3.0953E-3
6.7254E+2	1.9027E-3
6.7276E+2	7.1116E-3
6.7298E+2	3.8401E-3
6.7321E+2	8.3957E-3
6.7343E+2	-1.4675E-3
6.7365E+2	1.2837E-3
6.7388E+2	1.4180E-3
6.7410E+2	7.5311E-5
6.7432E+2	5.9243E-3
6.7455E+2	3.1071E-3
6.7477E+2	6.4586E-3
6.7499E+2	5.9273E-3
6.7521E+2	4.8270E-3
6.7544E+2	1.0846E-2
6.7566E+2	5.6595E-4
6.7588E+2	7.7059E-3
6.7611E+2	4.1737E-3
6.7633E+2	5.2934E-3
6.7655E+2	5.4619E-3
6.7677E+2	6.1209E-3
6.7700E+2	6.6134E-3
6.7722E+2	6.1599E-3
6.7744E+2	5.5461E-3
6.7766E+2	2.9519E-3
6.7789E+2	1.8777E-3
6.7811E+2	-3.2954E-3
6.7833E+2	4.8688E-3
6.7856E+2	6.4806E-3
6.7878E+2	5.4234E-3
6.7900E+2	1.0728E-2
6.7922E+2	9.2854E-3
6.7945E+2	4.6419E-3
6.7967E+2	4.9961E-3
6.7989E+2	7.2613E-3
6.8011E+2	7.2643E-3
6.8034E+2	5.7379E-3
6.8056E+2	1.3500E-2
6.8078E+2	5.5633E-3
6.8100E+2	4.2629E-3
6.8123E+2	3.8973E-3
6.8145E+2	4.5055E-3
6.8167E+2	5.7117E-4
6.8189E+2	1.1510E-2
6.8212E+2	6.6358E-3
6.8234E+2	5.1175E-3
6.8256E+2	6.9393E-3
6.8278E+2	7.3565E-3
6.8300E+2	5.8024E-3
6.8323E+2	7.3322E-3
6.8345E+2	9.1669E-3
6.8367E+2	4.4490E-3
6.8389E+2	7.4673E-3
6.8412E+2	5.2090E-3
6.8434E+2	5.3681E-3
6.8456E+2	5.5408E-3
6.8478E+2	1.0901E-3
6.8500E+2	9.8373E-3
6.8523E+2	7.9954E-3
6.8545E+2	4.3662E-3
6.8567E+2	6.5659E-3
6.8589E+2	8.4162E-3
6.8611E+2	1.7442E-3
6.8634E+2	3.3442E-3
6.8656E+2	1.0512E-2
6.8678E+2	8.8186E-3
6.8700E+2	9.5477E-3
6.8722E+2	1.0904E-2
6.8745E+2	5.2370E-3
6.8767E+2	1.0347E-2
6.8789E+2	1.2563E-2
6.8811E+2	1.0277E-2
6.8833E+2	7.5343E-3
6.8856E+2	7.3444E-3
6.8878E+2	8.1645E-3
6.8900E+2	8.5451E-3
6.8922E+2	1.2538E-2
6.8944E+2	1.2813E-2
6.8966E+2	7.5561E-3
6.8989E+2	1.2507E-2
6.9011E+2	1.1720E-2
6.9033E+2	8.3549E-3
6.9055E+2	9.0911E-3
6.9077E+2	1.3996E-2
6.9099E+2	3.1158E-3
6.9122E+2	1.1387E-2
6.9144E+2	1.3259E-2
6.9166E+2	1.1094E-2
6.9188E+2	1.0045E-2
6.9210E+2	8.5963E-3
6.9232E+2	1.2183E-2
6.9255E+2	1.2135E-2
6.9277E+2	1.2510E-2
6.9299E+2	9.3850E-3
6.9321E+2	9.6859E-3
6.9343E+2	1.0812E-2
6.9365E+2	1.0898E-2
6.9387E+2	1.4723E-2
6.9410E+2	1.3235E-2
6.9432E+2	1.2207E-2
6.9454E+2	1.2928E-2
6.9476E+2	1.4714E-2
6.9498E+2	1.4125E-2
6.9520E+2	1.5971E-2
6.9542E+2	1.5969E-2
6.9565E+2	1.8216E-2
6.9587E+2	1.0673E-2
6.9609E+2	1.7738E-2
6.9631E+2	1.3861E-2
6.9653E+2	1.2681E-2
6.9675E+2	1.3056E-2
6.9697E+2	1.4680E-2
6.9719E+2	1.7637E-2
6.9742E+2	1.6432E-2
6.9764E+2	1.5179E-2
6.9786E+2	1.5712E-2
6.9808E+2	1.9913E-2
6.9830E+2	1.6963E-2
6.9852E+2	1.9188E-2
6.9874E+2	2.1493E-2
6.9896E+2	1.1031E-2
6.9918E+2	2.0851E-2
6.9941E+2	1.8653E-2
6.9963E+2	1.8431E-2
6.9985E+2	1.6680E-2
7.0007E+2	2.1810E-2
7.0029E+2	2.1122E-2
7.0051E+2	2.3810E-2
7.0073E+2	2.2210E-2
7.0095E+2	2.1486E-2
7.0117E+2	2.0492E-2
7.0139E+2	2.1800E-2
7.0161E+2	1.9123E-2
7.0184E+2	1.8088E-2
7.0206E+2	2.5387E-2
7.0228E+2	2.1856E-2
7.0250E+2	2.4480E-2
7.0272E+2	2.8086E-2
7.0294E+2	2.2407E-2
7.0316E+2	2.2980E-2
7.0338E+2	2.2146E-2
7.0360E+2	2.5529E-2
7.0382E+2	2.3668E-2
7.0404E+2	2.8918E-2
7.0426E+2	2.4241E-2
7.0448E+2	2.9805E-2
7.0470E+2	2.4380E-2
7.0492E+2	2.8713E-2
7.0515E+2	3.1245E-2
7.0537E+2	2.9830E-2
7.0559E+2	3.1323E-2
7.0581E+2	2.7692E-2
7.0603E+2	2.9286E-2
7.0625E+2	2.8588E-2
7.0647E+2	2.7523E-2
7.0669E+2	3.1143E-2
7.0691E+2	3.3560E-2
7.0713E+2	3.0752E-2
7.0735E+2	2.8940E-2
7.0757E+2	3.2542E-2
7.0779E+2	3.0218E-2
7.0801E+2	2.8893E-2
7.0823E+2	3.3975E-2
7.0845E+2	3.4351E-2
7.0867E+2	3.6063E-2
7.0889E+2	3.7851E-2
7.0911E+2	3.6236E-2
7.0933E+2	3.7799E-2
7.0955E+2	4.2103E-2
7.0977E+2	3.9404E-2
7.0999E+2	3.9482E-2
7.1021E+2	3.5876E-2
7.1043E+2	4.0027E-2
7.1065E+2	4.0258E-2
7.1087E+2	4.3001E-2
7.1109E+2	4.2078E-2
7.1131E+2	4.4715E-2
7.1153E+2	3.8565E-2
7.1175E+2	4.4155E-2
7.1197E+2	4.1208E-2
7.1219E+2	4.3208E-2
7.1241E+2	4.8282E-2
7.1263E+2	4.7591E-2
7.1285E+2	4.9047E-2
7.1307E+2	4.8989E-2
7.1329E+2	4.9800E-2
7.1351E+2	5.3220E-2
7.1373E+2	4.9771E-2
7.1395E+2	4.9524E-2
7.1417E+2	5.0946E-2
7.1439E+2	5.2051E-2
7.1461E+2	5.7805E-2
7.1483E+2	5.2238E-2
7.1505E+2	5.5659E-2
7.1527E+2	5.3250E-2
7.1549E+2	5.7185E-2
7.1571E+2	5.6537E-2
7.1593E+2	5.8165E-2
7.1615E+2	5.4265E-2
7.1637E+2	5.8460E-2
7.1659E+2	6.3977E-2
7.1681E+2	5.8233E-2
7.1703E+2	6.7733E-2
7.1725E+2	6.6354E-2
7.1747E+2	7.0044E-2
7.1769E+2	6.3926E-2
7.1791E+2	6.5935E-2
7.1813E+2	6.5379E-2
7.1835E+2	6.4693E-2
7.1857E+2	6.6758E-2
7.1879E+2	6.8591E-2
7.1901E+2	6.8983E-2
7.1923E+2	6.5562E-2
7.1944E+2	6.9348E-2
7.1966E+2	6.9944E-2
7.1988E+2	7.2516E-2
7.2010E+2	7.6155E-2
7.2032E+2	7.0653E-2
7.2054E+2	7.3007E-2
7.2076E+2	7.3774E-2
7.2098E+2	6.9118E-2
7.2120E+2	7.3538E-2
7.2142E+2	7.0869E-2
7.2164E+2	7.1139E-2
7.2186E+2	7.4356E-2
7.2208E+2	7.8726E-2
7.2230E+2	7.4312E-2
7.2252E+2	7.7007E-2
7.2273E+2	8.2059E-2
7.2295E+2	7.6779E-2
7.2317E+2	8.0538E-2
7.2339E+2	8.2811E-2
7.2361E+2	7.9870E-2
7.2383E+2	8.4255E-2
7.2405E+2	8.4768E-2
7.2427E+2	8.4245E-2
7.2449E+2	8.8095E-2
7.2471E+2	8.5476E-2
7.2493E+2	8.5544E-2
7.2514E+2	8.5351E-2
7.2536E+2	8.6556E-2
7.2558E+2	8.6735E-2
7.2580E+2	8.7636E-2
7.2602E+2	8.5524E-2
7.2624E+2	8.2975E-2
7.2646E+2	8.6587E-2
7.2668E+2	8.5403E-2
7.2690E+2	8.6690E-2
7.2711E+2	8.6218E-2
7.2733E+2	8.2764E-2
7.2755E+2	8.6305E-2
7.2777E+2	9.2462E-2
7.2799E+2	8.9266E-2
7.2821E+2	9.0882E-2
7.2843E+2	9.0997E-2
7.2865E+2	9.1446E-2
7.2886E+2	9.1583E-2
7.2908E+2	9.1507E-2
7.2930E+2	9.1797E-2
7.2952E+2	9.0929E-2
7.2974E+2	8.9621E-2
7.2996E+2	8.8882E-2
7.3018E+2	9.2053E-2
7.3039E+2	8.7988E-2
7.3061E+2	8.9325E-2
7.3083E+2	8.9739E-2
7.3105E+2	9.0240E-2
7.3127E+2	9.2736E-2
7.3149E+2	8.9299E-2
7.3171E+2	8.8855E-2
7.3192E+2	9.2874E-2
7.3214E+2	9.4295E-2
7.3236E+2	9.4419E-2
7.3258E+2	9.0510E-2
7.3280E+2	9.0713E-2
7.3302E+2	9.5513E-2
7.3323E+2	9.2213E-2
7.3345E+2	9.2337E-2
7.3367E+2	9.2151E-2
7.3389E+2	9.4796E-2
7.3411E+2	9.4318E-2
7.3433E+2	9.1250E-2
7.3454E+2	8.7736E-2
7.3476E+2	8.9974E-2
7.3498E+2	9.0878E-2
7.3520E+2	9.1143E-2
7.3542E+2	9.1903E-2
7.3564E+2	9.2495E-2
7.3585E+2	9.3944E-2
7.3607E+2	8.6629E-2
7.3629E+2	9.0242E-2
7.3651E+2	9.0056E-2
7.3673E+2	8.7258E-2
7.3694E+2	8.5825E-2
7.3716E+2	9.1165E-2
7.3738E+2	8.8134E-2
7.3760E+2	8.9272E-2
7.3782E+2	9.1700E-2
7.3803E+2	9.6226E-2
7.3825E+2	8.9604E-2
7.3847E+2	8.9992E-2
7.3869E+2	8.8175E-2
7.3891E+2	8.8201E-2
7.3912E+2	9.2376E-2
7.3934E+2	9.0770E-2
7.3956E+2	8.8619E-2
7.3978E+2	8.7674E-2
7.4000E+2	8.8998E-2
7.4021E+2	8.9469E-2
7.4043E+2	9.1095E-2
7.4065E+2	8.5757E-2
7.4087E+2	7.9902E-2
7.4108E+2	8.5756E-2
7.4130E+2	8.2539E-2
7.4152E+2	8.6362E-2
7.4174E+2	8.6020E-2
7.4196E+2	8.4169E-2
7.4217E+2	8.4413E-2
7.4239E+2	8.6288E-2
7.4261E+2	8.4342E-2
7.4283E+2	8.5552E-2
7.4304E+2	8.1886E-2
7.4326E+2	8.6220E-2
7.4348E+2	8.4298E-2
7.4370E+2	8.4042E-2
7.4391E+2	8.0645E-2
7.4413E+2	8.4417E-2
7.4435E+2	8.3014E-2
7.4457E+2	8.3255E-2
7.4478E+2	8.1797E-2
7.4500E+2	8.3123E-2
7.4522E+2	8.1460E-2
7.4544E+2	7.8652E-2
7.4565E+2	8.1066E-2
7.4587E+2	7.4461E-2
7.4609E+2	7.4511E-2
7.4631E+2	7.5938E-2
7.4652E+2	7.6647E-2
7.4674E+2	8.0833E-2
7.4696E+2	7.6832E-2
7.4717E+2	8.1086E-2
7.4739E+2	7.2935E-2
7.4761E+2	7.5881E-2
7.4783E+2	7.3827E-2
7.4804E+2	7.7943E-2
7.4826E+2	7.3544E-2
7.4848E+2	7.1844E-2
7.4869E+2	7.4176E-2
7.4891E+2	7.4121E-2
7.4913E+2	6.8737E-2
7.4935E+2	7.0185E-2
7.4956E+2	7.1639E-2
7.4978E+2	7.0287E-2
7.5000E+2	6.6259E-2
7.5021E+2	7.0315E-2
7.5043E+2	7.0180E-2
7.5065E+2	6.1278E-2
7.5087E+2	6.3614E-2
7.5108E+2	6.6797E-2
7.5130E+2	6.2457E-2
7.5152E+2	6.3462E-2
7.5173E+2	6.2162E-2
7.5195E+2	6.2821E-2
7.5217E+2	6.1392E-2
7.5238E+2	6.3256E-2
7.5260E+2	6.1044E-2
7.5282E+2	6.3056E-2
7.5303E+2	5.8126E-2
7.5325E+2	6.0612E-2
7.5347E+2	5.9713E-2
7.5368E+2	6.1516E-2
7.5390E+2	5.4054E-2
7.5412E+2	5.8111E-2
7.5433E+2	5.8732E-2
7.5455E+2	5.7145E-2
7.5477E+2	5.5980E-2
7.5498E+2	5.8250E-2
7.5520E+2	5.5790E-2
7.5542E+2	5.2552E-2
7.5563E+2	5.1346E-2
7.5585E+2	5.3680E-2
7.5607E+2	5.0813E-2
7.5628E+2	5.1664E-2
7.5650E+2	4.9062E-2
7.5672E+2	5.0035E-2
7.5693E+2	4.6302E-2
7.5715E+2	4.6871E-2
7.5737E+2	4.5088E-2
7.5758E+2	4.5838E-2
7.5780E+2	4.7154E-2
7.5802E+2	4.8367E-2
7.5823E+2	4.5138E-2
7.5845E+2	4.6604E-2
7.5866E+2	4.3782E-2
7.5888E+2	4.4502E-2
7.5910E+2	4.5400E-2
7.5931E+2	4.4854E-2
7.5953E+2	4.3123E-2
7.5975E+2	4.3207E-2
7.5996E+2	4.0610E-2
7.6018E+2	4.3537E-2
7.6040E+2	4.0298E-2
7.6061E+2	3.8393E-2
7.6083E+2	3.8572E-2
7.6104E+2	3.7368E-2
7.6126E+2	3.7116E-2
7.6148E+2	3.5945E-2
7.6169E+2	3.6334E-2
7.6191E+2	3.8004E-2
7.6212E+2	3.4230E-2
7.6234E+2	3.4988E-2
7.6256E+2	3.5379E-2
7.6277E+2	3.1794E-2
7.6299E+2	3.2853E-2
7.6320E+2	3.5822E-2
7.6342E+2	3.0833E-2
7.6364E+2	3.2697E-2
7.6385E+2	2.9575E-2
7.6407E+2	3.5353E-2
7.6428E+2	3.1282E-2
7.6450E+2	3.0062E-2
7.6472E+2	3.0249E-2
7.6493E+2	2.9410E-2
7.6515E+2	3.2736E-2
7.6536E+2	2.7811E-2
7.6558E+2	2.8547E-2
7.6579E+2	2.9263E-2
7.6601E+2	2.6922E-2
7.6623E+2	2.6965E-2
7.6644E+2	2.7970E-2
7.6666E+2	2.4853E-2
7.6687E+2	2.6769E-2
7.6709E+2	2.6801E-2
7.6730E+2	2.6659E-2
7.6752E+2	2.3538E-2
7.6774E+2	2.4362E-2
7.6795E+2	2.1208E-2
7.6817E+2	2.4691E-2
7.6838E+2	2.3271E-2
7.6860E+2	2.4030E-2
7.6881E+2	2.6513E-2
7.6903E+2	2.4094E-2
7.6925E+2	2.1203E-2
7.6946E+2	2.5836E-2
7.6968E+2	2.8110E-2
7.6989E+2	2.7852E-2
7.7011E+2	3.1412E-2
7.7032E+2	3.3995E-2
7.7054E+2	3.3784E-2
7.7075E+2	3.1247E-2
7.7097E+2	2.5976E-2
7.7118E+2	2.2348E-2
7.7140E+2	1.8284E-2
7.7161E+2	2.1838E-2
7.7183E+2	1.9493E-2
7.7205E+2	1.9688E-2
7.7226E+2	1.8569E-2
7.7248E+2	1.7947E-2
7.7269E+2	1.7082E-2
7.7291E+2	1.6142E-2
7.7312E+2	1.8040E-2
7.7334E+2	1.7457E-2
7.7355E+2	1.8282E-2
7.7377E+2	1.5751E-2
7.7398E+2	1.5000E-2
7.7420E+2	1.7410E-2
7.7441E+2	1.6361E-2
7.7463E+2	1.8997E-2
7.7484E+2	1.6423E-2
7.7506E+2	1.7872E-2
7.7527E+2	1.4765E-2
7.7549E+2	1.6106E-2
7.7570E+2	1.5958E-2
7.7592E+2	1.6700E-2
7.7613E+2	1.5496E-2
7.7635E+2	1.2486E-2
7.7656E+2	1.3811E-2
7.7678E+2	1.3022E-2
7.7699E+2	1.2129E-2
7.7721E+2	1.2675E-2
7.7742E+2	1.5206E-2
7.7764E+2	1.1932E-2
7.7785E+2	1.1526E-2
7.7807E+2	1.4320E-2
7.7828E+2	1.2901E-2
7.7850E+2	1.2696E-2
7.7871E+2	1.1331E-2
7.7893E+2	1.0858E-2
7.7914E+2	1.2006E-2
7.7936E+2	1.3380E-2
7.7957E+2	1.2106E-2
7.7978E+2	1.1572E-2
7.8000E+2	1.0695E-2
7.8021E+2	1.1638E-2
7.8043E+2	1.1537E-2
7.8064E+2	1.2433E-2
7.8086E+2	9.9710E-3
7.8107E+2	9.9475E-3
7.8129E+2	9.9353E-3
7.8150E+2	1.0231E-2
7.8172E+2	1.1040E-2
7.8193E+2	9.5075E-3
7.8214E+2	1.0770E-2
7.8236E+2	1.1064E-2
7.8257E+2	9.4726E-3
7.8279E+2	7.9797E-3
7.8300E+2	1.1158E-2
7.8322E+2	8.5013E-3
7.8343E+2	1.0097E-2
7.8365E+2	8.6031E-3
7.8386E+2	8.1335E-3
7.8407E+2	7.7239E-3
7.8429E+2	8.7812E-3
7.8450E+2	8.6862E-3
7.8472E+2	7.8250E-3
7.8493E+2	9.3732E-3
7.8515E+2	7.8108E-3
7.8536E+2	6.9337E-3
7.8557E+2	8.2264E-3
7.8579E+2	5.4092E-3
7.8600E+2	5.8338E-3
7.8622E+2	7.2432E-3
7.8643E+2	9.1411E-3
7.8665E+2	6.3431E-3
7.8686E+2	9.7512E-3
7.8707E+2	6.2612E-3
7.8729E+2	6.6962E-3
7.8750E+2	8.5360E-3
7.8772E+2	8.5655E-3
7.8793E+2	7.6460E-3
7.8814E+2	5.6255E-3
7.8836E+2	6.4634E-3
7.8857E+2	8.2208E-3
7.8879E+2	5.7690E-3
7.8900E+2	5.3909E-3
7.8921E+2	6.6021E-3
7.8943E+2	4.9267E-3
7.8964E+2	7.2564E-3
7.8985E+2	7.8774E-3
7.9007E+2	6.9865E-3
7.9028E+2	4.1819E-3
7.9050E+2	6.2482E-3
7.9071E+2	7.2881E-3
7.9092E+2	5.1792E-3
7.9114E+2	5.9716E-3
7.9135E+2	5.5253E-3
7.9157E+2	6.2050E-3
7.9178E+2	5.8133E-3
7.9199E+2	6.0712E-3
7.9221E+2	6.5204E-3
7.9242E+2	5.4876E-3
7.9263E+2	4.4903E-3
7.9285E+2	5.0321E-3
7.9306E+2	3.8930E-3
7.9327E+2	4.5612E-3
7.9349E+2	4.7469E-3
7.9370E+2	4.7475E-3
7.9392E+2	5.3580E-3
7.9413E+2	4.2377E-3
7.9434E+2	5.1742E-3
7.9456E+2	5.8207E-3
7.9477E+2	6.9576E-3
7.9498E+2	4.7914E-3
7.9520E+2	6.6722E-3
7.9541E+2	6.5386E-3
7.9562E+2	5.6393E-3
7.9584E+2	5.0469E-3
7.9605E+2	4.5207E-3
7.9626E+2	5.8879E-3
7.9648E+2	4.4105E-3
7.9669E+2	5.9159E-3
7.9690E+2	6.5214E-3
7.9712E+2	5.8099E-3
7.9733E+2	4.9475E-3
7.9754E+2	4.8872E-3
7.9776E+2	4.5978E-3
7.9797E+2	4.4970E-3
7.9818E+2	5.4191E-3
7.9840E+2	5.6583E-3
7.9861E+2	4.0521E-3
7.9882E+2	5.5476E-3
7.9904E+2	6.0785E-3
7.9925E+2	4.5238E-3
7.9946E+2	4.3173E-3
7.9967E+2	3.8479E-3
7.9989E+2	4.4121E-3
8.0010E+2	5.4349E-3
8.0031E+2	3.8512E-3
8.0053E+2	4.0306E-3
8.0074E+2	5.2153E-3
8.0095E+2	4.3012E-3
8.0117E+2	4.2741E-3
8.0138E+2	3.2116E-3
8.0159E+2	4.5258E-3
8.0180E+2	6.4960E-3
8.0202E+2	4.5573E-3
8.0223E+2	2.9340E-3
8.0244E+2	4.0825E-3
8.0266E+2	2.9802E-3
8.0287E+2	5.3333E-3
8.0308E+2	4.1444E-3
8.0329E+2	3.8299E-3
8.0351E+2	6.3333E-3
8.0372E+2	3.7315E-3
8.0393E+2	2.1852E-3
8.0415E+2	3.8014E-3
8.0436E+2	5.4467E-3
8.0457E+2	1.9391E-3
8.0478E+2	1.2796E-3
8.0500E+2	4.7365E-3
8.0521E+2	4.7397E-3
8.0542E+2	3.2425E-3
8.0563E+2	5.1365E-3
8.0585E+2	2.6255E-3
8.0606E+2	3.5521E-3
8.0627E+2	4.3671E-3
8.0648E+2	2.8686E-3
8.0670E+2	3.4723E-3
8.0691E+2	2.9454E-3
8.0712E+2	2.6288E-3
8.0733E+2	4.2183E-3
8.0755E+2	3.0077E-3
8.0776E+2	3.5172E-3
8.0797E+2	3.5219E-3
8.0818E+2	2.5108E-3
8.0840E+2	4.2375E-3
