PLQY measurement:
Date: 	08.03.2023 17:25:51
Peak emission wavelength (nm): 758
 PLQY = 	 	4.03E-3
absorded light fraction (%): 92
MAYA saturard: FALSE
USB2000 saturaed: FALSE
wavelength	corrected total emission spec
6.8944E+2	6.2580E-3
6.8966E+2	9.1078E-3
6.8989E+2	1.1941E-2
6.9011E+2	1.0536E-2
6.9033E+2	1.0504E-2
6.9055E+2	1.3798E-2
6.9077E+2	9.7636E-3
6.9099E+2	1.2570E-2
6.9122E+2	9.3976E-3
6.9144E+2	1.2313E-2
6.9166E+2	1.4912E-2
6.9188E+2	9.1413E-3
6.9210E+2	1.2430E-2
6.9232E+2	1.1799E-2
6.9255E+2	1.3695E-2
6.9277E+2	1.1230E-2
6.9299E+2	9.0291E-3
6.9321E+2	1.1489E-2
6.9343E+2	8.0267E-3
6.9365E+2	5.8620E-3
6.9387E+2	1.1016E-2
6.9410E+2	1.4608E-2
6.9432E+2	1.1384E-2
6.9454E+2	1.2381E-2
6.9476E+2	1.0135E-2
6.9498E+2	9.0571E-3
6.9520E+2	1.5076E-2
6.9542E+2	8.2239E-3
6.9565E+2	5.5721E-3
6.9587E+2	7.9114E-3
6.9609E+2	1.2453E-2
6.9631E+2	1.1699E-2
6.9653E+2	9.0190E-3
6.9675E+2	1.5121E-2
6.9697E+2	1.3015E-2
6.9719E+2	1.4734E-2
6.9742E+2	8.4520E-3
6.9764E+2	1.4657E-2
6.9786E+2	7.7608E-3
6.9808E+2	1.0789E-2
6.9830E+2	1.3842E-2
6.9852E+2	9.4229E-3
6.9874E+2	9.9879E-3
6.9896E+2	8.2920E-3
6.9918E+2	1.4384E-2
6.9941E+2	1.3316E-2
6.9963E+2	1.1873E-2
6.9985E+2	1.1150E-2
7.0007E+2	1.5312E-2
7.0029E+2	1.2393E-2
7.0051E+2	1.7567E-2
7.0073E+2	1.5043E-2
7.0095E+2	1.3287E-2
7.0117E+2	9.1336E-3
7.0139E+2	1.3685E-2
7.0161E+2	1.2113E-2
7.0184E+2	1.3006E-2
7.0206E+2	9.9351E-3
7.0228E+2	1.3338E-2
7.0250E+2	1.3809E-2
7.0272E+2	1.7827E-2
7.0294E+2	7.1501E-3
7.0316E+2	1.2806E-2
7.0338E+2	1.5799E-2
7.0360E+2	1.3552E-2
7.0382E+2	1.6660E-2
7.0404E+2	1.1509E-2
7.0426E+2	9.6916E-3
7.0448E+2	1.3028E-2
7.0470E+2	1.7174E-2
7.0492E+2	1.3952E-2
7.0515E+2	1.5966E-2
7.0537E+2	1.3192E-2
7.0559E+2	1.2382E-2
7.0581E+2	1.1630E-2
7.0603E+2	1.8397E-2
7.0625E+2	1.5767E-2
7.0647E+2	1.6193E-2
7.0669E+2	1.4563E-2
7.0691E+2	1.4063E-2
7.0713E+2	9.8860E-3
7.0735E+2	1.6281E-2
7.0757E+2	1.4914E-2
7.0779E+2	9.7570E-3
7.0801E+2	1.4056E-2
7.0823E+2	1.9578E-2
7.0845E+2	1.6810E-2
7.0867E+2	1.7673E-2
7.0889E+2	1.9889E-2
7.0911E+2	2.3008E-2
7.0933E+2	1.7126E-2
7.0955E+2	2.2203E-2
7.0977E+2	1.7461E-2
7.0999E+2	1.3029E-2
7.1021E+2	1.6460E-2
7.1043E+2	1.7012E-2
7.1065E+2	2.3102E-2
7.1087E+2	1.6962E-2
7.1109E+2	1.6981E-2
7.1131E+2	1.8752E-2
7.1153E+2	1.4180E-2
7.1175E+2	1.6811E-2
7.1197E+2	2.1328E-2
7.1219E+2	2.5170E-2
7.1241E+2	1.8738E-2
7.1263E+2	2.3344E-2
7.1285E+2	1.8877E-2
7.1307E+2	2.2364E-2
7.1329E+2	2.2534E-2
7.1351E+2	2.2494E-2
7.1373E+2	2.4426E-2
7.1395E+2	2.2743E-2
7.1417E+2	2.3902E-2
7.1439E+2	2.4012E-2
7.1461E+2	2.7123E-2
7.1483E+2	1.9036E-2
7.1505E+2	2.7700E-2
7.1527E+2	2.0459E-2
7.1549E+2	3.0244E-2
7.1571E+2	2.6793E-2
7.1593E+2	2.0879E-2
7.1615E+2	2.2067E-2
7.1637E+2	2.5788E-2
7.1659E+2	2.4594E-2
7.1681E+2	2.4306E-2
7.1703E+2	3.2517E-2
7.1725E+2	3.2802E-2
7.1747E+2	2.4597E-2
7.1769E+2	2.6914E-2
7.1791E+2	2.6926E-2
7.1813E+2	3.0280E-2
7.1835E+2	3.1432E-2
7.1857E+2	3.0415E-2
7.1879E+2	2.7463E-2
7.1901E+2	3.3745E-2
7.1923E+2	3.2890E-2
7.1944E+2	2.8028E-2
7.1966E+2	3.1495E-2
7.1988E+2	3.3126E-2
7.2010E+2	2.9341E-2
7.2032E+2	3.4884E-2
7.2054E+2	3.4660E-2
7.2076E+2	3.5310E-2
7.2098E+2	3.6913E-2
7.2120E+2	3.7305E-2
7.2142E+2	3.6425E-2
7.2164E+2	3.3816E-2
7.2186E+2	3.8806E-2
7.2208E+2	3.9155E-2
7.2230E+2	3.9828E-2
7.2252E+2	3.5220E-2
7.2273E+2	3.5635E-2
7.2295E+2	3.7066E-2
7.2317E+2	4.1792E-2
7.2339E+2	4.4262E-2
7.2361E+2	4.3056E-2
7.2383E+2	4.0412E-2
7.2405E+2	3.9763E-2
7.2427E+2	4.3397E-2
7.2449E+2	4.3911E-2
7.2471E+2	4.5263E-2
7.2493E+2	4.6175E-2
7.2514E+2	4.2353E-2
7.2536E+2	4.2727E-2
7.2558E+2	5.0813E-2
7.2580E+2	4.4715E-2
7.2602E+2	4.5921E-2
7.2624E+2	4.8786E-2
7.2646E+2	4.9114E-2
7.2668E+2	5.0613E-2
7.2690E+2	5.2942E-2
7.2711E+2	4.8595E-2
7.2733E+2	5.0684E-2
7.2755E+2	5.4076E-2
7.2777E+2	5.2632E-2
7.2799E+2	4.8732E-2
7.2821E+2	5.6362E-2
7.2843E+2	5.1430E-2
7.2865E+2	5.5321E-2
7.2886E+2	5.5601E-2
7.2908E+2	5.7977E-2
7.2930E+2	6.0898E-2
7.2952E+2	5.8661E-2
7.2974E+2	5.8800E-2
7.2996E+2	5.5611E-2
7.3018E+2	6.2146E-2
7.3039E+2	6.0303E-2
7.3061E+2	6.4503E-2
7.3083E+2	7.0338E-2
7.3105E+2	6.7910E-2
7.3127E+2	6.4382E-2
7.3149E+2	6.8223E-2
7.3171E+2	6.7885E-2
7.3192E+2	6.5278E-2
7.3214E+2	6.9439E-2
7.3236E+2	6.9241E-2
7.3258E+2	6.6268E-2
7.3280E+2	7.2896E-2
7.3302E+2	7.1106E-2
7.3323E+2	7.9790E-2
7.3345E+2	7.4446E-2
7.3367E+2	7.5299E-2
7.3389E+2	7.9915E-2
7.3411E+2	7.5394E-2
7.3433E+2	7.8984E-2
7.3454E+2	7.6473E-2
7.3476E+2	7.6206E-2
7.3498E+2	8.3857E-2
7.3520E+2	8.1712E-2
7.3542E+2	8.7717E-2
7.3564E+2	8.3917E-2
7.3585E+2	8.1720E-2
7.3607E+2	8.7110E-2
7.3629E+2	8.5862E-2
7.3651E+2	8.3555E-2
7.3673E+2	8.9373E-2
7.3694E+2	8.5300E-2
7.3716E+2	9.1594E-2
7.3738E+2	8.6485E-2
7.3760E+2	8.9872E-2
7.3782E+2	9.4018E-2
7.3803E+2	9.2642E-2
7.3825E+2	9.9145E-2
7.3847E+2	1.0155E-1
7.3869E+2	9.6171E-2
7.3891E+2	1.0125E-1
7.3912E+2	9.6515E-2
7.3934E+2	9.9475E-2
7.3956E+2	1.0398E-1
7.3978E+2	1.0687E-1
7.4000E+2	1.0287E-1
7.4021E+2	1.0048E-1
7.4043E+2	1.0683E-1
7.4065E+2	1.0530E-1
7.4087E+2	1.0948E-1
7.4108E+2	1.1371E-1
7.4130E+2	1.1339E-1
7.4152E+2	1.0848E-1
7.4174E+2	1.0978E-1
7.4196E+2	1.1505E-1
7.4217E+2	1.1553E-1
7.4239E+2	1.1651E-1
7.4261E+2	1.1822E-1
7.4283E+2	1.1882E-1
7.4304E+2	1.1939E-1
7.4326E+2	1.1606E-1
7.4348E+2	1.2235E-1
7.4370E+2	1.2212E-1
7.4391E+2	1.2444E-1
7.4413E+2	1.2684E-1
7.4435E+2	1.2593E-1
7.4457E+2	1.2605E-1
7.4478E+2	1.2130E-1
7.4500E+2	1.2633E-1
7.4522E+2	1.2347E-1
7.4544E+2	1.2516E-1
7.4565E+2	1.2473E-1
7.4587E+2	1.2685E-1
7.4609E+2	1.3391E-1
7.4631E+2	1.3230E-1
7.4652E+2	1.3301E-1
7.4674E+2	1.2897E-1
7.4696E+2	1.3860E-1
7.4717E+2	1.3350E-1
7.4739E+2	1.4243E-1
7.4761E+2	1.3869E-1
7.4783E+2	1.4042E-1
7.4804E+2	1.3776E-1
7.4826E+2	1.4450E-1
7.4848E+2	1.4552E-1
7.4869E+2	1.4527E-1
7.4891E+2	1.4491E-1
7.4913E+2	1.4223E-1
7.4935E+2	1.4340E-1
7.4956E+2	1.4908E-1
7.4978E+2	1.5093E-1
7.5000E+2	1.4485E-1
7.5021E+2	1.4257E-1
7.5043E+2	1.5020E-1
7.5065E+2	1.4776E-1
7.5087E+2	1.4780E-1
7.5108E+2	1.5324E-1
7.5130E+2	1.5225E-1
7.5152E+2	1.5039E-1
7.5173E+2	1.5393E-1
7.5195E+2	1.5866E-1
7.5217E+2	1.5012E-1
7.5238E+2	1.5811E-1
7.5260E+2	1.4929E-1
7.5282E+2	1.5699E-1
7.5303E+2	1.4916E-1
7.5325E+2	1.6199E-1
7.5347E+2	1.5563E-1
7.5368E+2	1.5144E-1
7.5390E+2	1.6161E-1
7.5412E+2	1.5619E-1
7.5433E+2	1.5889E-1
7.5455E+2	1.5606E-1
7.5477E+2	1.5263E-1
7.5498E+2	1.5130E-1
7.5520E+2	1.5604E-1
7.5542E+2	1.5263E-1
7.5563E+2	1.6049E-1
7.5585E+2	1.5625E-1
7.5607E+2	1.6022E-1
7.5628E+2	1.5371E-1
7.5650E+2	1.5593E-1
7.5672E+2	1.5537E-1
7.5693E+2	1.5913E-1
7.5715E+2	1.5463E-1
7.5737E+2	1.5928E-1
7.5758E+2	1.5520E-1
7.5780E+2	1.6256E-1
7.5802E+2	1.5341E-1
7.5823E+2	1.5695E-1
7.5845E+2	1.6322E-1
7.5866E+2	1.5539E-1
7.5888E+2	1.6059E-1
7.5910E+2	1.5865E-1
7.5931E+2	1.5633E-1
7.5953E+2	1.5638E-1
7.5975E+2	1.5496E-1
7.5996E+2	1.5444E-1
7.6018E+2	1.5974E-1
7.6040E+2	1.5417E-1
7.6061E+2	1.5657E-1
7.6083E+2	1.5450E-1
7.6104E+2	1.5403E-1
7.6126E+2	1.4852E-1
7.6148E+2	1.5395E-1
7.6169E+2	1.4992E-1
7.6191E+2	1.5778E-1
7.6212E+2	1.5525E-1
7.6234E+2	1.5554E-1
7.6256E+2	1.5152E-1
7.6277E+2	1.5277E-1
7.6299E+2	1.5903E-1
7.6320E+2	1.5283E-1
7.6342E+2	1.5006E-1
7.6364E+2	1.5486E-1
7.6385E+2	1.5188E-1
7.6407E+2	1.5183E-1
7.6428E+2	1.4877E-1
7.6450E+2	1.4680E-1
7.6472E+2	1.5231E-1
7.6493E+2	1.5041E-1
7.6515E+2	1.4715E-1
7.6536E+2	1.4809E-1
7.6558E+2	1.4531E-1
7.6579E+2	1.4211E-1
7.6601E+2	1.4549E-1
7.6623E+2	1.4465E-1
7.6644E+2	1.4639E-1
7.6666E+2	1.3936E-1
7.6687E+2	1.3885E-1
7.6709E+2	1.4205E-1
7.6730E+2	1.3883E-1
7.6752E+2	1.3305E-1
7.6774E+2	1.4079E-1
7.6795E+2	1.3697E-1
7.6817E+2	1.4014E-1
7.6838E+2	1.3604E-1
7.6860E+2	1.3553E-1
7.6881E+2	1.3013E-1
7.6903E+2	1.3385E-1
7.6925E+2	1.3888E-1
7.6946E+2	1.3417E-1
7.6968E+2	1.3740E-1
7.6989E+2	1.3852E-1
7.7011E+2	1.3052E-1
7.7032E+2	1.3506E-1
7.7054E+2	1.4145E-1
7.7075E+2	1.2897E-1
7.7097E+2	1.3409E-1
7.7118E+2	1.2372E-1
7.7140E+2	1.1789E-1
7.7161E+2	1.2290E-1
7.7183E+2	1.1866E-1
7.7205E+2	1.1556E-1
7.7226E+2	1.1868E-1
7.7248E+2	1.1601E-1
7.7269E+2	1.1535E-1
7.7291E+2	1.1300E-1
7.7312E+2	1.1286E-1
7.7334E+2	1.1042E-1
7.7355E+2	1.1411E-1
7.7377E+2	1.1093E-1
7.7398E+2	1.1300E-1
7.7420E+2	1.0668E-1
7.7441E+2	1.1053E-1
7.7463E+2	1.0604E-1
7.7484E+2	1.0804E-1
7.7506E+2	1.0891E-1
7.7527E+2	1.0244E-1
7.7549E+2	1.0341E-1
7.7570E+2	1.0765E-1
7.7592E+2	1.0404E-1
7.7613E+2	1.0176E-1
7.7635E+2	9.9535E-2
7.7656E+2	9.6387E-2
7.7678E+2	9.5728E-2
7.7699E+2	9.0536E-2
7.7721E+2	9.1489E-2
7.7742E+2	9.0613E-2
7.7764E+2	8.6206E-2
7.7785E+2	8.7832E-2
7.7807E+2	8.5978E-2
7.7828E+2	8.9031E-2
7.7850E+2	8.6378E-2
7.7871E+2	8.8661E-2
7.7893E+2	7.8678E-2
7.7914E+2	8.3372E-2
7.7936E+2	8.0515E-2
7.7957E+2	8.4615E-2
7.7978E+2	8.5363E-2
7.8000E+2	7.8846E-2
7.8021E+2	8.2666E-2
7.8043E+2	7.7348E-2
7.8064E+2	7.7161E-2
7.8086E+2	7.4793E-2
7.8107E+2	7.3106E-2
7.8129E+2	7.5942E-2
7.8150E+2	7.3555E-2
7.8172E+2	7.0710E-2
7.8193E+2	7.0408E-2
7.8214E+2	6.8725E-2
7.8236E+2	6.7588E-2
7.8257E+2	6.3384E-2
7.8279E+2	6.5815E-2
7.8300E+2	6.3715E-2
7.8322E+2	6.3885E-2
7.8343E+2	6.0311E-2
7.8365E+2	6.1841E-2
7.8386E+2	6.1431E-2
7.8407E+2	5.8789E-2
7.8429E+2	5.6537E-2
7.8450E+2	5.5707E-2
7.8472E+2	5.8663E-2
7.8493E+2	5.5432E-2
7.8515E+2	5.6831E-2
7.8536E+2	5.5408E-2
7.8557E+2	5.2273E-2
7.8579E+2	4.8902E-2
7.8600E+2	5.3046E-2
7.8622E+2	5.0244E-2
7.8643E+2	5.0368E-2
7.8665E+2	4.6150E-2
7.8686E+2	4.9295E-2
7.8707E+2	5.2017E-2
7.8729E+2	5.0276E-2
7.8750E+2	4.5555E-2
7.8772E+2	4.7294E-2
7.8793E+2	4.3382E-2
7.8814E+2	4.2147E-2
7.8836E+2	4.2255E-2
7.8857E+2	4.4502E-2
7.8879E+2	4.2576E-2
7.8900E+2	4.2339E-2
7.8921E+2	3.9841E-2
7.8943E+2	3.8338E-2
7.8964E+2	3.8665E-2
7.8985E+2	3.7691E-2
7.9007E+2	3.7679E-2
7.9028E+2	3.8975E-2
7.9050E+2	3.4228E-2
7.9071E+2	3.6300E-2
7.9092E+2	3.5908E-2
7.9114E+2	3.2947E-2
7.9135E+2	3.4641E-2
7.9157E+2	3.5735E-2
7.9178E+2	3.4084E-2
7.9199E+2	3.4220E-2
7.9221E+2	3.1119E-2
7.9242E+2	3.2218E-2
7.9263E+2	3.4470E-2
7.9285E+2	3.1420E-2
7.9306E+2	2.9030E-2
7.9327E+2	2.8394E-2
7.9349E+2	3.2958E-2
7.9370E+2	2.7303E-2
7.9392E+2	3.0371E-2
7.9413E+2	2.9651E-2
7.9434E+2	2.7349E-2
7.9456E+2	2.8581E-2
7.9477E+2	2.8679E-2
7.9498E+2	2.7236E-2
7.9520E+2	2.6051E-2
7.9541E+2	2.8007E-2
7.9562E+2	2.7171E-2
7.9584E+2	2.5772E-2
7.9605E+2	2.4447E-2
7.9626E+2	2.6005E-2
7.9648E+2	2.6830E-2
7.9669E+2	2.2833E-2
7.9690E+2	2.2860E-2
7.9712E+2	2.4432E-2
7.9733E+2	2.3477E-2
7.9754E+2	2.2123E-2
7.9776E+2	2.2913E-2
7.9797E+2	2.3167E-2
7.9818E+2	1.9164E-2
7.9840E+2	2.1560E-2
7.9861E+2	2.0343E-2
7.9882E+2	1.9607E-2
7.9904E+2	2.2113E-2
7.9925E+2	2.2303E-2
7.9946E+2	1.9819E-2
7.9967E+2	1.7889E-2
7.9989E+2	1.9186E-2
8.0010E+2	1.9095E-2
8.0031E+2	1.8683E-2
8.0053E+2	1.6399E-2
8.0074E+2	2.0509E-2
8.0095E+2	1.8178E-2
8.0117E+2	1.5603E-2
8.0138E+2	1.8460E-2
8.0159E+2	1.7909E-2
8.0180E+2	1.6732E-2
8.0202E+2	1.8818E-2
8.0223E+2	1.6259E-2
8.0244E+2	1.7311E-2
8.0266E+2	1.6169E-2
8.0287E+2	1.5844E-2
8.0308E+2	1.6628E-2
8.0329E+2	1.8613E-2
8.0351E+2	1.3415E-2
8.0372E+2	1.1313E-2
8.0393E+2	1.6174E-2
8.0415E+2	1.5075E-2
8.0436E+2	1.6141E-2
8.0457E+2	1.2461E-2
8.0478E+2	1.5063E-2
8.0500E+2	1.2415E-2
8.0521E+2	1.4225E-2
8.0542E+2	1.2598E-2
8.0563E+2	1.4870E-2
8.0585E+2	1.7084E-2
8.0606E+2	1.0675E-2
8.0627E+2	1.2767E-2
8.0648E+2	1.4127E-2
8.0670E+2	1.3123E-2
8.0691E+2	1.1152E-2
8.0712E+2	1.2552E-2
8.0733E+2	1.1113E-2
8.0755E+2	1.2370E-2
8.0776E+2	1.2707E-2
8.0797E+2	1.3558E-2
8.0818E+2	1.2788E-2
8.0840E+2	9.9572E-3
8.0861E+2	9.4657E-3
8.0882E+2	1.1432E-2
8.0903E+2	1.0909E-2
8.0925E+2	1.0805E-2
8.0946E+2	8.3701E-3
8.0967E+2	1.0647E-2
8.0988E+2	1.0519E-2
8.1009E+2	8.4433E-3
8.1031E+2	1.0672E-2
8.1052E+2	8.9960E-3
8.1073E+2	8.4407E-3
8.1094E+2	8.4725E-3
8.1116E+2	1.1410E-2
8.1137E+2	9.5750E-3
8.1158E+2	9.4604E-3
8.1179E+2	8.8515E-3
8.1200E+2	1.0028E-2
8.1222E+2	9.6757E-3
8.1243E+2	9.0494E-3
8.1264E+2	1.1307E-2
8.1285E+2	9.3128E-3
8.1306E+2	7.9421E-3
8.1328E+2	9.0011E-3
8.1349E+2	9.2511E-3
8.1370E+2	1.0126E-2
8.1391E+2	1.0126E-2
8.1412E+2	1.1987E-2
8.1434E+2	1.0103E-2
8.1455E+2	9.4073E-3
8.1476E+2	9.3660E-3
8.1497E+2	8.3525E-3
8.1518E+2	6.8070E-3
8.1540E+2	6.3260E-3
8.1561E+2	6.9507E-3
8.1582E+2	8.7154E-3
8.1603E+2	6.9916E-3
8.1624E+2	8.2480E-3
8.1645E+2	9.6658E-3
8.1667E+2	7.8793E-3
8.1688E+2	5.5937E-3
8.1709E+2	9.7313E-3
8.1730E+2	6.8330E-3
8.1751E+2	8.2904E-3
8.1772E+2	6.6277E-3
8.1794E+2	9.2849E-3
8.1815E+2	7.2932E-3
8.1836E+2	7.6376E-3
8.1857E+2	6.3695E-3
8.1878E+2	7.3019E-3
8.1899E+2	6.8010E-3
8.1921E+2	7.5222E-3
8.1942E+2	5.4294E-3
8.1963E+2	7.2635E-3
8.1984E+2	7.1105E-3
8.2005E+2	6.2881E-3
8.2026E+2	8.0129E-3
8.2047E+2	5.4831E-3
8.2069E+2	7.0446E-3
8.2090E+2	7.9303E-3
8.2111E+2	8.8987E-3
8.2132E+2	3.9047E-3
8.2153E+2	7.1682E-3
8.2174E+2	6.4740E-3
8.2195E+2	5.7268E-3
8.2216E+2	4.9693E-3
8.2238E+2	6.4783E-3
8.2259E+2	7.4029E-3
8.2280E+2	5.8364E-3
8.2301E+2	1.3646E-2
8.2322E+2	1.5421E-2
8.2343E+2	1.6180E-2
8.2364E+2	1.3841E-2
8.2385E+2	1.1403E-2
8.2407E+2	1.2141E-2
8.2428E+2	1.3891E-2
8.2449E+2	8.9621E-3
8.2470E+2	5.6307E-3
8.2491E+2	5.1962E-3
8.2512E+2	5.9808E-3
8.2533E+2	6.8474E-3
8.2554E+2	5.4851E-3
8.2575E+2	4.2243E-3
8.2596E+2	3.8983E-3
8.2618E+2	3.9618E-3
8.2639E+2	4.6684E-3
8.2660E+2	6.5602E-3
8.2681E+2	3.7033E-3
8.2702E+2	7.2563E-3
8.2723E+2	3.5589E-3
