PLQY measurement:
Date: 	08.03.2023 17:34:00
Peak emission wavelength (nm): 753
 PLQY = 	 	3.66E-2
absorded light fraction (%): 101
MAYA saturard: FALSE
USB2000 saturaed: FALSE
wavelength	corrected total emission spec
6.6248E+2	1.6141E-2
6.6271E+2	1.2155E-2
6.6293E+2	1.1010E-2
6.6315E+2	1.6185E-2
6.6338E+2	1.0352E-2
6.6360E+2	6.2433E-3
6.6383E+2	1.3991E-2
6.6405E+2	1.4207E-2
6.6427E+2	1.4697E-2
6.6450E+2	1.5186E-2
6.6472E+2	1.4848E-2
6.6494E+2	1.4591E-2
6.6517E+2	1.3796E-2
6.6539E+2	1.4790E-2
6.6562E+2	1.8829E-2
6.6584E+2	1.3823E-2
6.6606E+2	1.2708E-2
6.6629E+2	1.6004E-2
6.6651E+2	1.7816E-2
6.6673E+2	1.6066E-2
6.6696E+2	1.3897E-2
6.6718E+2	1.1222E-2
6.6740E+2	1.5516E-2
6.6763E+2	1.2808E-2
6.6785E+2	1.7396E-2
6.6807E+2	1.2422E-2
6.6830E+2	1.1507E-2
6.6852E+2	1.2447E-2
6.6874E+2	1.8880E-2
6.6897E+2	1.5437E-2
6.6919E+2	1.4098E-2
6.6941E+2	1.8122E-2
6.6964E+2	1.7512E-2
6.6986E+2	1.4916E-2
6.7008E+2	1.8314E-2
6.7031E+2	1.4587E-2
6.7053E+2	1.2943E-2
6.7075E+2	1.5774E-2
6.7098E+2	1.3291E-2
6.7120E+2	1.3598E-2
6.7142E+2	1.3502E-2
6.7165E+2	1.3901E-2
6.7187E+2	1.6320E-2
6.7209E+2	1.6703E-2
6.7232E+2	1.6629E-2
6.7254E+2	1.9301E-2
6.7276E+2	1.8465E-2
6.7298E+2	1.0382E-2
6.7321E+2	1.6306E-2
6.7343E+2	1.4722E-2
6.7365E+2	1.9137E-2
6.7388E+2	1.6730E-2
6.7410E+2	1.7427E-2
6.7432E+2	2.1601E-2
6.7455E+2	1.7082E-2
6.7477E+2	1.2453E-2
6.7499E+2	2.0780E-2
6.7521E+2	1.4135E-2
6.7544E+2	1.4533E-2
6.7566E+2	1.4936E-2
6.7588E+2	1.6343E-2
6.7611E+2	1.7824E-2
6.7633E+2	1.4196E-2
6.7655E+2	1.8219E-2
6.7677E+2	1.2124E-2
6.7700E+2	1.7807E-2
6.7722E+2	1.5676E-2
6.7744E+2	2.1592E-2
6.7766E+2	1.4632E-2
6.7789E+2	1.8812E-2
6.7811E+2	1.6990E-2
6.7833E+2	2.0254E-2
6.7856E+2	1.6360E-2
6.7878E+2	2.3876E-2
6.7900E+2	2.2273E-2
6.7922E+2	2.1602E-2
6.7945E+2	2.3220E-2
6.7967E+2	1.7725E-2
6.7989E+2	1.7205E-2
6.8011E+2	2.3192E-2
6.8034E+2	2.0493E-2
6.8056E+2	1.8539E-2
6.8078E+2	1.8776E-2
6.8100E+2	2.0767E-2
6.8123E+2	2.6796E-2
6.8145E+2	2.0915E-2
6.8167E+2	1.7347E-2
6.8189E+2	2.1620E-2
6.8212E+2	2.1059E-2
6.8234E+2	2.2886E-2
6.8256E+2	2.1467E-2
6.8278E+2	2.7464E-2
6.8300E+2	2.1253E-2
6.8323E+2	2.4854E-2
6.8345E+2	2.0135E-2
6.8367E+2	2.5202E-2
6.8389E+2	2.4690E-2
6.8412E+2	2.2667E-2
6.8434E+2	2.3276E-2
6.8456E+2	2.5091E-2
6.8478E+2	2.7230E-2
6.8500E+2	2.0954E-2
6.8523E+2	2.4044E-2
6.8545E+2	2.1277E-2
6.8567E+2	2.5334E-2
6.8589E+2	2.4231E-2
6.8611E+2	2.7969E-2
6.8634E+2	2.8972E-2
6.8656E+2	2.6262E-2
6.8678E+2	2.4834E-2
6.8700E+2	3.1334E-2
6.8722E+2	2.4840E-2
6.8745E+2	2.7738E-2
6.8767E+2	2.7597E-2
6.8789E+2	3.0309E-2
6.8811E+2	2.9129E-2
6.8833E+2	3.2385E-2
6.8856E+2	2.4596E-2
6.8878E+2	2.4765E-2
6.8900E+2	3.5273E-2
6.8922E+2	3.6974E-2
6.8944E+2	3.3252E-2
6.8966E+2	3.2779E-2
6.8989E+2	3.6315E-2
6.9011E+2	3.4295E-2
6.9033E+2	3.1957E-2
6.9055E+2	3.5941E-2
6.9077E+2	3.2838E-2
6.9099E+2	3.1138E-2
6.9122E+2	3.9070E-2
6.9144E+2	4.1400E-2
6.9166E+2	3.8020E-2
6.9188E+2	3.3855E-2
6.9210E+2	3.7901E-2
6.9232E+2	3.4387E-2
6.9255E+2	3.8812E-2
6.9277E+2	4.1771E-2
6.9299E+2	4.4054E-2
6.9321E+2	4.1870E-2
6.9343E+2	4.2596E-2
6.9365E+2	3.9022E-2
6.9387E+2	4.4661E-2
6.9410E+2	4.8163E-2
6.9432E+2	4.3649E-2
6.9454E+2	4.5929E-2
6.9476E+2	4.2770E-2
6.9498E+2	4.4773E-2
6.9520E+2	4.9845E-2
6.9542E+2	4.3672E-2
6.9565E+2	5.2409E-2
6.9587E+2	4.7846E-2
6.9609E+2	4.9725E-2
6.9631E+2	4.9390E-2
6.9653E+2	5.0278E-2
6.9675E+2	5.2606E-2
6.9697E+2	5.3604E-2
6.9719E+2	5.4309E-2
6.9742E+2	5.2664E-2
6.9764E+2	5.7479E-2
6.9786E+2	5.5852E-2
6.9808E+2	5.9187E-2
6.9830E+2	5.8648E-2
6.9852E+2	5.7515E-2
6.9874E+2	5.8717E-2
6.9896E+2	5.8415E-2
6.9918E+2	6.1026E-2
6.9941E+2	6.4632E-2
6.9963E+2	6.6903E-2
6.9985E+2	6.0600E-2
7.0007E+2	6.6609E-2
7.0029E+2	6.9632E-2
7.0051E+2	7.0255E-2
7.0073E+2	6.4861E-2
7.0095E+2	6.8420E-2
7.0117E+2	7.4746E-2
7.0139E+2	7.5261E-2
7.0161E+2	7.3969E-2
7.0184E+2	7.4929E-2
7.0206E+2	7.5311E-2
7.0228E+2	7.5326E-2
7.0250E+2	8.1010E-2
7.0272E+2	8.3680E-2
7.0294E+2	8.2103E-2
7.0316E+2	8.0667E-2
7.0338E+2	8.2672E-2
7.0360E+2	8.4923E-2
7.0382E+2	9.2989E-2
7.0404E+2	9.2047E-2
7.0426E+2	9.0819E-2
7.0448E+2	9.2119E-2
7.0470E+2	9.5205E-2
7.0492E+2	9.8269E-2
7.0515E+2	9.7928E-2
7.0537E+2	9.5597E-2
7.0559E+2	1.0215E-1
7.0581E+2	1.0246E-1
7.0603E+2	1.0074E-1
7.0625E+2	1.0521E-1
7.0647E+2	1.0828E-1
7.0669E+2	1.0999E-1
7.0691E+2	1.0750E-1
7.0713E+2	1.0666E-1
7.0735E+2	1.1318E-1
7.0757E+2	1.1456E-1
7.0779E+2	1.2005E-1
7.0801E+2	1.2609E-1
7.0823E+2	1.2744E-1
7.0845E+2	1.2566E-1
7.0867E+2	1.3241E-1
7.0889E+2	1.3005E-1
7.0911E+2	1.3338E-1
7.0933E+2	1.3616E-1
7.0955E+2	1.3896E-1
7.0977E+2	1.4145E-1
7.0999E+2	1.3755E-1
7.1021E+2	1.4209E-1
7.1043E+2	1.4309E-1
7.1065E+2	1.5353E-1
7.1087E+2	1.4439E-1
7.1109E+2	1.4982E-1
7.1131E+2	1.5515E-1
7.1153E+2	1.5757E-1
7.1175E+2	1.5654E-1
7.1197E+2	1.6443E-1
7.1219E+2	1.6523E-1
7.1241E+2	1.7010E-1
7.1263E+2	1.7718E-1
7.1285E+2	1.7938E-1
7.1307E+2	1.7919E-1
7.1329E+2	1.8760E-1
7.1351E+2	1.8432E-1
7.1373E+2	1.9471E-1
7.1395E+2	1.9340E-1
7.1417E+2	2.0246E-1
7.1439E+2	1.9594E-1
7.1461E+2	2.0757E-1
7.1483E+2	2.1374E-1
7.1505E+2	2.1373E-1
7.1527E+2	2.1943E-1
7.1549E+2	2.1400E-1
7.1571E+2	2.1958E-1
7.1593E+2	2.2107E-1
7.1615E+2	2.2429E-1
7.1637E+2	2.3085E-1
7.1659E+2	2.3498E-1
7.1681E+2	2.4091E-1
7.1703E+2	2.4216E-1
7.1725E+2	2.4845E-1
7.1747E+2	2.5641E-1
7.1769E+2	2.5547E-1
7.1791E+2	2.5885E-1
7.1813E+2	2.6995E-1
7.1835E+2	2.7775E-1
7.1857E+2	2.8249E-1
7.1879E+2	2.8043E-1
7.1901E+2	2.8815E-1
7.1923E+2	2.9605E-1
7.1944E+2	2.8966E-1
7.1966E+2	3.0303E-1
7.1988E+2	3.0474E-1
7.2010E+2	3.1169E-1
7.2032E+2	3.1213E-1
7.2054E+2	3.1616E-1
7.2076E+2	3.2456E-1
7.2098E+2	3.3525E-1
7.2120E+2	3.2950E-1
7.2142E+2	3.3628E-1
7.2164E+2	3.4875E-1
7.2186E+2	3.6439E-1
7.2208E+2	3.6194E-1
7.2230E+2	3.6798E-1
7.2252E+2	3.7412E-1
7.2273E+2	3.8051E-1
7.2295E+2	3.8464E-1
7.2317E+2	4.0029E-1
7.2339E+2	3.9761E-1
7.2361E+2	4.0349E-1
7.2383E+2	4.1383E-1
7.2405E+2	4.1709E-1
7.2427E+2	4.2561E-1
7.2449E+2	4.3406E-1
7.2471E+2	4.3345E-1
7.2493E+2	4.4205E-1
7.2514E+2	4.5656E-1
7.2536E+2	4.4784E-1
7.2558E+2	4.5595E-1
7.2580E+2	4.6581E-1
7.2602E+2	4.7610E-1
7.2624E+2	4.8822E-1
7.2646E+2	4.8681E-1
7.2668E+2	5.0476E-1
7.2690E+2	5.1499E-1
7.2711E+2	5.2395E-1
7.2733E+2	5.3215E-1
7.2755E+2	5.3373E-1
7.2777E+2	5.4727E-1
7.2799E+2	5.5815E-1
7.2821E+2	5.6955E-1
7.2843E+2	5.8394E-1
7.2865E+2	5.9357E-1
7.2886E+2	5.9023E-1
7.2908E+2	6.0735E-1
7.2930E+2	6.1321E-1
7.2952E+2	6.1494E-1
7.2974E+2	6.3065E-1
7.2996E+2	6.4098E-1
7.3018E+2	6.4448E-1
7.3039E+2	6.5004E-1
7.3061E+2	6.6356E-1
7.3083E+2	6.6618E-1
7.3105E+2	6.8702E-1
7.3127E+2	6.9755E-1
7.3149E+2	7.0571E-1
7.3171E+2	7.0933E-1
7.3192E+2	7.2223E-1
7.3214E+2	7.4552E-1
7.3236E+2	7.3925E-1
7.3258E+2	7.5430E-1
7.3280E+2	7.7698E-1
7.3302E+2	7.9206E-1
7.3323E+2	7.9819E-1
7.3345E+2	8.0916E-1
7.3367E+2	8.2958E-1
7.3389E+2	8.3024E-1
7.3411E+2	8.4332E-1
7.3433E+2	8.6177E-1
7.3454E+2	8.6262E-1
7.3476E+2	8.5970E-1
7.3498E+2	8.7630E-1
7.3520E+2	8.8579E-1
7.3542E+2	9.1160E-1
7.3564E+2	9.0634E-1
7.3585E+2	9.1235E-1
7.3607E+2	9.3069E-1
7.3629E+2	9.4495E-1
7.3651E+2	9.6424E-1
7.3673E+2	9.8089E-1
7.3694E+2	9.8979E-1
7.3716E+2	1.0063E+0
7.3738E+2	1.0305E+0
7.3760E+2	1.0473E+0
7.3782E+2	1.0552E+0
7.3803E+2	1.0711E+0
7.3825E+2	1.0752E+0
7.3847E+2	1.0952E+0
7.3869E+2	1.0998E+0
7.3891E+2	1.1161E+0
7.3912E+2	1.1160E+0
7.3934E+2	1.1293E+0
7.3956E+2	1.1322E+0
7.3978E+2	1.1525E+0
7.4000E+2	1.1517E+0
7.4021E+2	1.1717E+0
7.4043E+2	1.1858E+0
7.4065E+2	1.1865E+0
7.4087E+2	1.1988E+0
7.4108E+2	1.2177E+0
7.4130E+2	1.2489E+0
7.4152E+2	1.2428E+0
7.4174E+2	1.2731E+0
7.4196E+2	1.2872E+0
7.4217E+2	1.3020E+0
7.4239E+2	1.3067E+0
7.4261E+2	1.3334E+0
7.4283E+2	1.3338E+0
7.4304E+2	1.3361E+0
7.4326E+2	1.3673E+0
7.4348E+2	1.3686E+0
7.4370E+2	1.3644E+0
7.4391E+2	1.3870E+0
7.4413E+2	1.3863E+0
7.4435E+2	1.3938E+0
7.4457E+2	1.3954E+0
7.4478E+2	1.4020E+0
7.4500E+2	1.4117E+0
7.4522E+2	1.4042E+0
7.4544E+2	1.4364E+0
7.4565E+2	1.4421E+0
7.4587E+2	1.4530E+0
7.4609E+2	1.4529E+0
7.4631E+2	1.4596E+0
7.4652E+2	1.4642E+0
7.4674E+2	1.4897E+0
7.4696E+2	1.5040E+0
7.4717E+2	1.5083E+0
7.4739E+2	1.5402E+0
7.4761E+2	1.5374E+0
7.4783E+2	1.5467E+0
7.4804E+2	1.5521E+0
7.4826E+2	1.5583E+0
7.4848E+2	1.5684E+0
7.4869E+2	1.5628E+0
7.4891E+2	1.5594E+0
7.4913E+2	1.5752E+0
7.4935E+2	1.5655E+0
7.4956E+2	1.5754E+0
7.4978E+2	1.5837E+0
7.5000E+2	1.5667E+0
7.5021E+2	1.5753E+0
7.5043E+2	1.5882E+0
7.5065E+2	1.5755E+0
7.5087E+2	1.5801E+0
7.5108E+2	1.5945E+0
7.5130E+2	1.5824E+0
7.5152E+2	1.5911E+0
7.5173E+2	1.5879E+0
7.5195E+2	1.6076E+0
7.5217E+2	1.6171E+0
7.5238E+2	1.6011E+0
7.5260E+2	1.6324E+0
7.5282E+2	1.6429E+0
7.5303E+2	1.6364E+0
7.5325E+2	1.6279E+0
7.5347E+2	1.6423E+0
7.5368E+2	1.6367E+0
7.5390E+2	1.6322E+0
7.5412E+2	1.6310E+0
7.5433E+2	1.6247E+0
7.5455E+2	1.6192E+0
7.5477E+2	1.6218E+0
7.5498E+2	1.6197E+0
7.5520E+2	1.6103E+0
7.5542E+2	1.6028E+0
7.5563E+2	1.5811E+0
7.5585E+2	1.5938E+0
7.5607E+2	1.5879E+0
7.5628E+2	1.5807E+0
7.5650E+2	1.5778E+0
7.5672E+2	1.5840E+0
7.5693E+2	1.5899E+0
7.5715E+2	1.5885E+0
7.5737E+2	1.5864E+0
7.5758E+2	1.5915E+0
7.5780E+2	1.5887E+0
7.5802E+2	1.5871E+0
7.5823E+2	1.5866E+0
7.5845E+2	1.5914E+0
7.5866E+2	1.5708E+0
7.5888E+2	1.5721E+0
7.5910E+2	1.5769E+0
7.5931E+2	1.5572E+0
7.5953E+2	1.5632E+0
7.5975E+2	1.5458E+0
7.5996E+2	1.5463E+0
7.6018E+2	1.5229E+0
7.6040E+2	1.5378E+0
7.6061E+2	1.5151E+0
7.6083E+2	1.5033E+0
7.6104E+2	1.4972E+0
7.6126E+2	1.5003E+0
7.6148E+2	1.4942E+0
7.6169E+2	1.4657E+0
7.6191E+2	1.4748E+0
7.6212E+2	1.4641E+0
7.6234E+2	1.4597E+0
7.6256E+2	1.4683E+0
7.6277E+2	1.4561E+0
7.6299E+2	1.4687E+0
7.6320E+2	1.4579E+0
7.6342E+2	1.4729E+0
7.6364E+2	1.4465E+0
7.6385E+2	1.4423E+0
7.6407E+2	1.4565E+0
7.6428E+2	1.4360E+0
7.6450E+2	1.4489E+0
7.6472E+2	1.4267E+0
7.6493E+2	1.4055E+0
7.6515E+2	1.3937E+0
7.6536E+2	1.3778E+0
7.6558E+2	1.3780E+0
7.6579E+2	1.3709E+0
7.6601E+2	1.3531E+0
7.6623E+2	1.3462E+0
7.6644E+2	1.3330E+0
7.6666E+2	1.3266E+0
7.6687E+2	1.3200E+0
7.6709E+2	1.2983E+0
7.6730E+2	1.3032E+0
7.6752E+2	1.2970E+0
7.6774E+2	1.2693E+0
7.6795E+2	1.2780E+0
7.6817E+2	1.2761E+0
7.6838E+2	1.2738E+0
7.6860E+2	1.2736E+0
7.6881E+2	1.2704E+0
7.6903E+2	1.2638E+0
7.6925E+2	1.2506E+0
7.6946E+2	1.2505E+0
7.6968E+2	1.2354E+0
7.6989E+2	1.2297E+0
7.7011E+2	1.2156E+0
7.7032E+2	1.2009E+0
7.7054E+2	1.1935E+0
7.7075E+2	1.1834E+0
7.7097E+2	1.1656E+0
7.7118E+2	1.1453E+0
7.7140E+2	1.1271E+0
7.7161E+2	1.1236E+0
7.7183E+2	1.1118E+0
7.7205E+2	1.1136E+0
7.7226E+2	1.1052E+0
7.7248E+2	1.0824E+0
7.7269E+2	1.0579E+0
7.7291E+2	1.0555E+0
7.7312E+2	1.0514E+0
7.7334E+2	1.0477E+0
7.7355E+2	1.0265E+0
7.7377E+2	1.0224E+0
7.7398E+2	1.0098E+0
7.7420E+2	1.0077E+0
7.7441E+2	1.0201E+0
7.7463E+2	1.0008E+0
7.7484E+2	9.9461E-1
7.7506E+2	9.8252E-1
7.7527E+2	9.7620E-1
7.7549E+2	9.6770E-1
7.7570E+2	9.4588E-1
7.7592E+2	9.4689E-1
7.7613E+2	9.3884E-1
7.7635E+2	9.2185E-1
7.7656E+2	9.0110E-1
7.7678E+2	9.0035E-1
7.7699E+2	8.7409E-1
7.7721E+2	8.6310E-1
7.7742E+2	8.4947E-1
7.7764E+2	8.4186E-1
7.7785E+2	8.2461E-1
7.7807E+2	8.1414E-1
7.7828E+2	7.9746E-1
7.7850E+2	7.9737E-1
7.7871E+2	7.7467E-1
7.7893E+2	7.7576E-1
7.7914E+2	7.4665E-1
7.7936E+2	7.5677E-1
7.7957E+2	7.4357E-1
7.7978E+2	7.4212E-1
7.8000E+2	7.3037E-1
7.8021E+2	7.2591E-1
7.8043E+2	7.0211E-1
7.8064E+2	7.0037E-1
7.8086E+2	6.9550E-1
7.8107E+2	6.7829E-1
7.8129E+2	6.7246E-1
7.8150E+2	6.7224E-1
7.8172E+2	6.5287E-1
7.8193E+2	6.4331E-1
7.8214E+2	6.3434E-1
7.8236E+2	6.1864E-1
7.8257E+2	6.0877E-1
7.8279E+2	5.9966E-1
7.8300E+2	5.8845E-1
7.8322E+2	5.7225E-1
7.8343E+2	5.6909E-1
7.8365E+2	5.6625E-1
7.8386E+2	5.4615E-1
7.8407E+2	5.3877E-1
7.8429E+2	5.3449E-1
7.8450E+2	5.2539E-1
7.8472E+2	5.1261E-1
7.8493E+2	5.0422E-1
7.8515E+2	4.9883E-1
7.8536E+2	4.9678E-1
7.8557E+2	4.8664E-1
7.8579E+2	4.8787E-1
7.8600E+2	4.7476E-1
7.8622E+2	4.6868E-1
7.8643E+2	4.6563E-1
7.8665E+2	4.6121E-1
7.8686E+2	4.5528E-1
7.8707E+2	4.4371E-1
7.8729E+2	4.3564E-1
7.8750E+2	4.2486E-1
7.8772E+2	4.2536E-1
7.8793E+2	4.1951E-1
7.8814E+2	4.0635E-1
7.8836E+2	3.9795E-1
7.8857E+2	3.9850E-1
7.8879E+2	3.8785E-1
7.8900E+2	3.8197E-1
7.8921E+2	3.6538E-1
7.8943E+2	3.6290E-1
7.8964E+2	3.6124E-1
7.8985E+2	3.4934E-1
7.9007E+2	3.4202E-1
7.9028E+2	3.3336E-1
7.9050E+2	3.3152E-1
7.9071E+2	3.2870E-1
7.9092E+2	3.2303E-1
7.9114E+2	3.2315E-1
7.9135E+2	3.1477E-1
7.9157E+2	3.1115E-1
7.9178E+2	3.0543E-1
7.9199E+2	3.0110E-1
7.9221E+2	3.0376E-1
7.9242E+2	2.9281E-1
7.9263E+2	2.8913E-1
7.9285E+2	2.8062E-1
7.9306E+2	2.8008E-1
7.9327E+2	2.7075E-1
7.9349E+2	2.6947E-1
7.9370E+2	2.6137E-1
7.9392E+2	2.6961E-1
7.9413E+2	2.5841E-1
7.9434E+2	2.5166E-1
7.9456E+2	2.4853E-1
7.9477E+2	2.4466E-1
7.9498E+2	2.3117E-1
7.9520E+2	2.3320E-1
7.9541E+2	2.2541E-1
7.9562E+2	2.2235E-1
7.9584E+2	2.2246E-1
7.9605E+2	2.1712E-1
7.9626E+2	2.1330E-1
7.9648E+2	2.1088E-1
7.9669E+2	2.0609E-1
7.9690E+2	2.0203E-1
7.9712E+2	1.9717E-1
7.9733E+2	1.9682E-1
7.9754E+2	1.9016E-1
7.9776E+2	1.8824E-1
7.9797E+2	1.8594E-1
7.9818E+2	1.8657E-1
7.9840E+2	1.8078E-1
7.9861E+2	1.7924E-1
7.9882E+2	1.7665E-1
7.9904E+2	1.7368E-1
7.9925E+2	1.6972E-1
7.9946E+2	1.6732E-1
7.9967E+2	1.6398E-1
7.9989E+2	1.6115E-1
8.0010E+2	1.6060E-1
8.0031E+2	1.5712E-1
8.0053E+2	1.5111E-1
8.0074E+2	1.5133E-1
8.0095E+2	1.4265E-1
8.0117E+2	1.4389E-1
8.0138E+2	1.4074E-1
8.0159E+2	1.3903E-1
8.0180E+2	1.3475E-1
8.0202E+2	1.3386E-1
8.0223E+2	1.2849E-1
8.0244E+2	1.2961E-1
8.0266E+2	1.2858E-1
8.0287E+2	1.2553E-1
8.0308E+2	1.2669E-1
8.0329E+2	1.2519E-1
8.0351E+2	1.2280E-1
8.0372E+2	1.1707E-1
8.0393E+2	1.1440E-1
8.0415E+2	1.1782E-1
8.0436E+2	1.1534E-1
8.0457E+2	1.0959E-1
8.0478E+2	1.1338E-1
8.0500E+2	1.0886E-1
8.0521E+2	1.0912E-1
8.0542E+2	1.0652E-1
8.0563E+2	1.0634E-1
8.0585E+2	1.0393E-1
8.0606E+2	9.9097E-2
8.0627E+2	9.8378E-2
8.0648E+2	9.7041E-2
8.0670E+2	9.9817E-2
8.0691E+2	9.5499E-2
8.0712E+2	9.4044E-2
8.0733E+2	9.3454E-2
8.0755E+2	8.6489E-2
8.0776E+2	8.8806E-2
8.0797E+2	8.7111E-2
8.0818E+2	8.4033E-2
8.0840E+2	8.3251E-2
8.0861E+2	7.7903E-2
8.0882E+2	7.8828E-2
8.0903E+2	8.0668E-2
8.0925E+2	7.9926E-2
8.0946E+2	7.6505E-2
8.0967E+2	7.6653E-2
8.0988E+2	7.5756E-2
8.1009E+2	7.1333E-2
8.1031E+2	7.7213E-2
8.1052E+2	7.4747E-2
8.1073E+2	7.0923E-2
8.1094E+2	7.1512E-2
8.1116E+2	7.2286E-2
8.1137E+2	6.8980E-2
8.1158E+2	6.8609E-2
8.1179E+2	6.9569E-2
8.1200E+2	6.4549E-2
8.1222E+2	6.5069E-2
8.1243E+2	6.3560E-2
8.1264E+2	6.3493E-2
8.1285E+2	6.2095E-2
8.1306E+2	6.2128E-2
8.1328E+2	6.0228E-2
8.1349E+2	5.8559E-2
8.1370E+2	5.9909E-2
8.1391E+2	5.9224E-2
8.1412E+2	5.8149E-2
8.1434E+2	5.5391E-2
8.1455E+2	5.4913E-2
8.1476E+2	5.1840E-2
8.1497E+2	5.5044E-2
8.1518E+2	5.2233E-2
8.1540E+2	5.3558E-2
8.1561E+2	5.0448E-2
8.1582E+2	5.0896E-2
8.1603E+2	5.0666E-2
8.1624E+2	4.9367E-2
8.1645E+2	5.1022E-2
8.1667E+2	4.6364E-2
8.1688E+2	4.4611E-2
8.1709E+2	4.4946E-2
8.1730E+2	4.7804E-2
8.1751E+2	4.6904E-2
8.1772E+2	4.5153E-2
8.1794E+2	4.3518E-2
8.1815E+2	4.2469E-2
8.1836E+2	4.3739E-2
8.1857E+2	4.2253E-2
8.1878E+2	4.3649E-2
8.1899E+2	4.1589E-2
8.1921E+2	4.1472E-2
8.1942E+2	4.1483E-2
8.1963E+2	3.7589E-2
8.1984E+2	3.9523E-2
8.2005E+2	3.9266E-2
8.2026E+2	3.8709E-2
8.2047E+2	3.5433E-2
8.2069E+2	3.4762E-2
8.2090E+2	3.8976E-2
8.2111E+2	3.5022E-2
8.2132E+2	3.3678E-2
8.2153E+2	3.4646E-2
8.2174E+2	3.4739E-2
8.2195E+2	3.2652E-2
8.2216E+2	3.2328E-2
8.2238E+2	3.3333E-2
8.2259E+2	3.2750E-2
8.2280E+2	2.9627E-2
8.2301E+2	3.4268E-2
8.2322E+2	4.0835E-2
8.2343E+2	4.1651E-2
8.2364E+2	3.8758E-2
8.2385E+2	3.5598E-2
8.2407E+2	3.5769E-2
8.2428E+2	3.6105E-2
8.2449E+2	3.0540E-2
8.2470E+2	2.8333E-2
8.2491E+2	2.8632E-2
8.2512E+2	2.7734E-2
8.2533E+2	2.8490E-2
8.2554E+2	3.0867E-2
8.2575E+2	2.7435E-2
8.2596E+2	2.6562E-2
8.2618E+2	2.6078E-2
8.2639E+2	2.5814E-2
8.2660E+2	2.5253E-2
8.2681E+2	2.4393E-2
8.2702E+2	2.3728E-2
8.2723E+2	2.4182E-2
8.2744E+2	2.3928E-2
8.2765E+2	2.3060E-2
8.2786E+2	2.4554E-2
8.2807E+2	2.1459E-2
8.2828E+2	2.3349E-2
8.2849E+2	2.5044E-2
8.2871E+2	2.2727E-2
8.2892E+2	2.0714E-2
8.2913E+2	2.2507E-2
8.2934E+2	2.1726E-2
8.2955E+2	2.2904E-2
8.2976E+2	2.0579E-2
8.2997E+2	2.2140E-2
8.3018E+2	1.9337E-2
8.3039E+2	2.0495E-2
8.3060E+2	2.0834E-2
8.3081E+2	1.9237E-2
8.3102E+2	1.9913E-2
8.3123E+2	2.0633E-2
8.3144E+2	2.0366E-2
8.3165E+2	2.2416E-2
8.3186E+2	1.9381E-2
8.3208E+2	1.6984E-2
8.3229E+2	1.9609E-2
8.3250E+2	2.0321E-2
8.3271E+2	2.0017E-2
8.3292E+2	1.9758E-2
8.3313E+2	1.9212E-2
8.3334E+2	1.8035E-2
8.3355E+2	1.8549E-2
8.3376E+2	1.6716E-2
8.3397E+2	1.6908E-2
8.3418E+2	1.6010E-2
8.3439E+2	1.7482E-2
8.3460E+2	1.7529E-2
8.3481E+2	1.5012E-2
8.3502E+2	1.5767E-2
8.3523E+2	1.4815E-2
8.3544E+2	1.6691E-2
8.3565E+2	1.5937E-2
8.3586E+2	1.6868E-2
8.3607E+2	1.5174E-2
8.3628E+2	1.5112E-2
8.3649E+2	1.5965E-2
8.3670E+2	1.6695E-2
8.3691E+2	1.4426E-2
8.3712E+2	1.4844E-2
8.3733E+2	1.5775E-2
8.3754E+2	1.4800E-2
8.3775E+2	1.4230E-2
8.3796E+2	1.3555E-2
8.3817E+2	1.4050E-2
8.3838E+2	1.3595E-2
8.3859E+2	1.4242E-2
8.3880E+2	1.3114E-2
8.3901E+2	1.3219E-2
8.3922E+2	1.3100E-2
8.3943E+2	1.6094E-2
8.3964E+2	1.2771E-2
8.3985E+2	1.2490E-2
8.4006E+2	1.3202E-2
8.4027E+2	1.4016E-2
8.4048E+2	1.4046E-2
8.4069E+2	1.1946E-2
8.4090E+2	1.1757E-2
8.4111E+2	1.2731E-2
8.4132E+2	1.1870E-2
8.4153E+2	1.2185E-2
8.4174E+2	1.2457E-2
8.4195E+2	1.3075E-2
8.4216E+2	1.3564E-2
8.4237E+2	1.2529E-2
8.4258E+2	9.1898E-3
8.4279E+2	9.8874E-3
8.4300E+2	1.1422E-2
8.4321E+2	1.1783E-2
8.4342E+2	1.1838E-2
8.4362E+2	1.1744E-2
8.4383E+2	1.1779E-2
8.4404E+2	1.1729E-2
8.4425E+2	9.8684E-3
8.4446E+2	1.1094E-2
8.4467E+2	1.1494E-2
8.4488E+2	1.0970E-2
8.4509E+2	1.1582E-2
8.4530E+2	1.0773E-2
8.4551E+2	1.0600E-2
8.4572E+2	1.3550E-2
8.4593E+2	1.0154E-2
8.4614E+2	8.1585E-3
8.4635E+2	9.4026E-3
8.4656E+2	1.1753E-2
8.4677E+2	9.7255E-3
8.4697E+2	8.7389E-3
8.4718E+2	1.1656E-2
8.4739E+2	1.1004E-2
8.4760E+2	9.4978E-3
8.4781E+2	8.5035E-3
8.4802E+2	1.0112E-2
8.4823E+2	1.1220E-2
8.4844E+2	1.0054E-2
8.4865E+2	1.0962E-2
8.4886E+2	9.8704E-3
8.4907E+2	8.3204E-3
8.4928E+2	9.8400E-3
8.4948E+2	1.2316E-2
8.4969E+2	1.1123E-2
8.4990E+2	9.7778E-3
8.5011E+2	1.2166E-2
8.5032E+2	1.0098E-2
8.5053E+2	9.3119E-3
8.5074E+2	8.1916E-3
8.5095E+2	9.5667E-3
8.5116E+2	8.3361E-3
8.5137E+2	8.5150E-3
8.5157E+2	8.2498E-3
8.5178E+2	8.0346E-3
8.5199E+2	9.5576E-3
8.5220E+2	8.6305E-3
8.5241E+2	1.0325E-2
8.5262E+2	7.0398E-3
8.5283E+2	1.0067E-2
8.5304E+2	9.8976E-3
8.5324E+2	1.0273E-2
8.5345E+2	8.5947E-3
8.5366E+2	9.1765E-3
8.5387E+2	8.6947E-3
8.5408E+2	8.1597E-3
8.5429E+2	8.8504E-3
8.5450E+2	1.0653E-2
8.5471E+2	6.4439E-3
8.5491E+2	8.8191E-3
8.5512E+2	7.6893E-3
8.5533E+2	8.7384E-3
8.5554E+2	8.4321E-3
8.5575E+2	7.2746E-3
8.5596E+2	8.2567E-3
8.5617E+2	8.3401E-3
8.5637E+2	6.8758E-3
8.5658E+2	8.4856E-3
8.5679E+2	7.7253E-3
8.5700E+2	7.3463E-3
8.5721E+2	7.8840E-3
8.5742E+2	8.4488E-3
8.5762E+2	8.8008E-3
8.5783E+2	6.6262E-3
8.5804E+2	6.9627E-3
8.5825E+2	7.9426E-3
8.5846E+2	8.6245E-3
8.5867E+2	7.5573E-3
8.5887E+2	5.9761E-3
8.5908E+2	7.4660E-3
8.5929E+2	7.3475E-3
8.5950E+2	8.8368E-3
8.5971E+2	7.5470E-3
8.5992E+2	7.5792E-3
8.6012E+2	7.1702E-3
8.6033E+2	8.6516E-3
8.6054E+2	8.0584E-3
8.6075E+2	7.8820E-3
8.6096E+2	7.3944E-3
8.6116E+2	7.4160E-3
8.6137E+2	6.4950E-3
8.6158E+2	5.2858E-3
8.6179E+2	5.3312E-3
8.6200E+2	6.5545E-3
8.6220E+2	8.3907E-3
8.6241E+2	6.8889E-3
8.6262E+2	7.8455E-3
8.6283E+2	6.6524E-3
8.6304E+2	5.4631E-3
8.6324E+2	7.4616E-3
8.6345E+2	7.4147E-3
8.6366E+2	6.8791E-3
8.6387E+2	6.9633E-3
8.6408E+2	6.5254E-3
8.6428E+2	6.5548E-3
8.6449E+2	4.8180E-3
8.6470E+2	4.7808E-3
8.6491E+2	7.0408E-3
8.6511E+2	6.6249E-3
8.6532E+2	7.1113E-3
8.6553E+2	6.8833E-3
8.6574E+2	6.0267E-3
8.6595E+2	7.9337E-3
8.6615E+2	6.3844E-3
8.6636E+2	4.7844E-3
8.6657E+2	5.8948E-3
8.6678E+2	5.9293E-3
8.6698E+2	5.9679E-3
8.6719E+2	7.0782E-3
8.6740E+2	5.9031E-3
8.6761E+2	7.0894E-3
